year    month   day   hour  minute  B_enl V_enl   n_enl       T_enl
[year] [month] [day] [hour][minute] [nT]  [km/s]  [cm-3]      [kK]
2015    7       25     0   3    5.4500   462.2    5.820      42.419
2015    7       25     0   9    5.4473   462.2    5.818      42.401
2015    7       25     0  14    5.4446   462.2    5.816      42.384
2015    7       25     0  20    5.4419   462.1    5.814      42.366
2015    7       25     0  26    5.4392   462.1    5.812      42.348
2015    7       25     0  31    5.4365   462.0    5.811      42.331
2015    7       25     0  37    5.4337   462.0    5.809      42.313
2015    7       25     0  42    5.4310   462.0    5.807      42.295
2015    7       25     0  48    5.4283   461.9    5.805      42.278
2015    7       25     0  53    5.4256   461.9    5.803      42.260
2015    7       25     0  59    5.4228   461.9    5.802      42.242
2015    7       25     1   5    5.4201   461.8    5.800      42.225
2015    7       25     1  10    5.4173   461.8    5.798      42.208
2015    7       25     1  16    5.4146   461.7    5.797      42.190
2015    7       25     1  21    5.4119   461.7    5.795      42.173
2015    7       25     1  27    5.4092   461.7    5.793      42.156
2015    7       25     1  32    5.4064   461.6    5.792      42.138
2015    7       25     1  38    5.4037   461.6    5.790      42.121
2015    7       25     1  44    5.4010   461.5    5.789      42.104
2015    7       25     1  49    5.3983   461.5    5.787      42.087
2015    7       25     1  55    5.3955   461.5    5.786      42.070
2015    7       25     2   0    5.3928   461.4    5.784      42.054
2015    7       25     2   6    5.3901   461.4    5.783      42.037
2015    7       25     2  12    5.3874   461.3    5.781      42.020
2015    7       25     2  17    5.3847   461.3    5.780      42.004
2015    7       25     2  23    5.3820   461.2    5.778      41.987
2015    7       25     2  28    5.3793   461.2    5.777      41.970
2015    7       25     2  34    5.3766   461.1    5.775      41.954
2015    7       25     2  39    5.3739   461.1    5.774      41.937
2015    7       25     2  45    5.3713   461.0    5.773      41.921
2015    7       25     2  51    5.3686   461.0    5.771      41.905
2015    7       25     2  56    5.3659   460.9    5.770      41.888
2015    7       25     3   2    5.3632   460.9    5.768      41.872
2015    7       25     3   7    5.3606   460.8    5.766      41.855
2015    7       25     3  13    5.3579   460.8    5.765      41.839
2015    7       25     3  18    5.3553   460.7    5.763      41.822
2015    7       25     3  24    5.3526   460.7    5.762      41.806
2015    7       25     3  30    5.3500   460.6    5.760      41.789
2015    7       25     3  35    5.3473   460.6    5.759      41.772
2015    7       25     3  41    5.3447   460.5    5.757      41.756
2015    7       25     3  46    5.3421   460.5    5.755      41.739
2015    7       25     3  52    5.3394   460.4    5.754      41.722
2015    7       25     3  57    5.3368   460.4    5.752      41.705
2015    7       25     4   3    5.3342   460.3    5.750      41.688
2015    7       25     4   9    5.3315   460.3    5.749      41.670
2015    7       25     4  14    5.3289   460.2    5.747      41.653
2015    7       25     4  20    5.3262   460.2    5.745      41.635
2015    7       25     4  25    5.3235   460.1    5.743      41.617
2015    7       25     4  31    5.3209   460.0    5.742      41.599
2015    7       25     4  36    5.3182   460.0    5.740      41.581
2015    7       25     4  42    5.3155   459.9    5.738      41.563
2015    7       25     4  48    5.3128   459.9    5.736      41.545
2015    7       25     4  53    5.3101   459.8    5.735      41.526
2015    7       25     4  59    5.3074   459.8    5.733      41.508
2015    7       25     5   4    5.3047   459.7    5.731      41.489
2015    7       25     5  10    5.3020   459.6    5.729      41.470
2015    7       25     5  15    5.2992   459.6    5.727      41.450
2015    7       25     5  21    5.2965   459.5    5.726      41.431
2015    7       25     5  27    5.2937   459.5    5.724      41.411
2015    7       25     5  32    5.2910   459.4    5.722      41.392
2015    7       25     5  38    5.2882   459.3    5.720      41.372
2015    7       25     5  43    5.2854   459.3    5.718      41.352
2015    7       25     5  49    5.2826   459.2    5.717      41.332
2015    7       25     5  54    5.2799   459.1    5.715      41.311
2015    7       25     6   0    5.2771   459.1    5.713      41.291
2015    7       25     6   6    5.2743   459.0    5.711      41.270
2015    7       25     6  11    5.2714   458.9    5.710      41.249
2015    7       25     6  17    5.2686   458.9    5.708      41.229
2015    7       25     6  22    5.2658   458.8    5.706      41.207
2015    7       25     6  28    5.2630   458.7    5.704      41.186
2015    7       25     6  34    5.2601   458.7    5.703      41.165
2015    7       25     6  39    5.2573   458.6    5.701      41.144
2015    7       25     6  45    5.2545   458.5    5.699      41.122
2015    7       25     6  50    5.2516   458.5    5.698      41.101
2015    7       25     6  56    5.2488   458.4    5.696      41.079
2015    7       25     7   1    5.2459   458.3    5.695      41.058
2015    7       25     7   7    5.2431   458.3    5.693      41.036
2015    7       25     7  13    5.2402   458.2    5.692      41.014
2015    7       25     7  18    5.2374   458.1    5.690      40.992
2015    7       25     7  24    5.2345   458.0    5.689      40.971
2015    7       25     7  29    5.2316   458.0    5.687      40.949
2015    7       25     7  35    5.2288   457.9    5.686      40.927
2015    7       25     7  40    5.2259   457.8    5.684      40.905
2015    7       25     7  46    5.2230   457.7    5.683      40.883
2015    7       25     7  52    5.2202   457.7    5.682      40.861
2015    7       25     7  57    5.2173   457.6    5.680      40.840
2015    7       25     8   3    5.2145   457.5    5.679      40.818
2015    7       25     8   8    5.2116   457.4    5.678      40.796
2015    7       25     8  14    5.2088   457.3    5.677      40.774
2015    7       25     8  20    5.2059   457.3    5.676      40.753
2015    7       25     8  25    5.2031   457.2    5.674      40.731
2015    7       25     8  31    5.2002   457.1    5.673      40.710
2015    7       25     8  36    5.1974   457.0    5.672      40.688
2015    7       25     8  42    5.1946   456.9    5.671      40.667
2015    7       25     8  47    5.1917   456.9    5.670      40.645
2015    7       25     8  53    5.1890   456.8    5.669      40.624
2015    7       25     8  59    5.1861   456.7    5.668      40.602
2015    7       25     9   4    5.1834   456.6    5.667      40.581
2015    7       25     9  10    5.1806   456.5    5.666      40.560
2015    7       25     9  15    5.1778   456.4    5.665      40.538
2015    7       25     9  21    5.1750   456.4    5.664      40.517
2015    7       25     9  26    5.1723   456.3    5.664      40.496
2015    7       25     9  32    5.1696   456.2    5.663      40.475
2015    7       25     9  38    5.1669   456.1    5.662      40.454
2015    7       25     9  43    5.1641   456.0    5.661      40.433
2015    7       25     9  49    5.1615   455.9    5.660      40.412
2015    7       25     9  54    5.1588   455.8    5.659      40.391
2015    7       25    10   0    5.1561   455.8    5.658      40.370
2015    7       25    10   6    5.1535   455.7    5.657      40.349
2015    7       25    10  11    5.1508   455.6    5.657      40.328
2015    7       25    10  17    5.1482   455.5    5.656      40.307
2015    7       25    10  22    5.1456   455.4    5.655      40.287
2015    7       25    10  28    5.1430   455.3    5.654      40.266
2015    7       25    10  33    5.1404   455.2    5.654      40.245
2015    7       25    10  39    5.1379   455.1    5.653      40.225
2015    7       25    10  45    5.1353   455.0    5.652      40.204
2015    7       25    10  50    5.1328   454.9    5.651      40.184
2015    7       25    10  56    5.1303   454.8    5.651      40.163
2015    7       25    11   1    5.1278   454.8    5.650      40.143
2015    7       25    11   7    5.1253   454.7    5.649      40.122
2015    7       25    11  12    5.1228   454.6    5.648      40.102
2015    7       25    11  18    5.1204   454.5    5.648      40.082
2015    7       25    11  24    5.1179   454.4    5.647      40.061
2015    7       25    11  29    5.1155   454.3    5.647      40.041
2015    7       25    11  35    5.1130   454.2    5.646      40.021
2015    7       25    11  40    5.1105   454.1    5.645      40.001
2015    7       25    11  46    5.1081   454.0    5.645      39.980
2015    7       25    11  51    5.1056   453.9    5.644      39.960
2015    7       25    11  57    5.1031   453.8    5.644      39.940
2015    7       25    12   3    5.1007   453.7    5.643      39.920
2015    7       25    12   8    5.0982   453.6    5.643      39.900
2015    7       25    12  14    5.0957   453.6    5.642      39.879
2015    7       25    12  19    5.0932   453.5    5.641      39.859
2015    7       25    12  25    5.0907   453.4    5.641      39.839
2015    7       25    12  30    5.0882   453.3    5.640      39.818
2015    7       25    12  36    5.0857   453.2    5.640      39.797
2015    7       25    12  42    5.0832   453.1    5.639      39.776
2015    7       25    12  47    5.0807   453.0    5.639      39.755
2015    7       25    12  53    5.0781   452.9    5.638      39.734
2015    7       25    12  58    5.0756   452.8    5.638      39.713
2015    7       25    13   4    5.0731   452.7    5.637      39.692
2015    7       25    13   9    5.0705   452.6    5.636      39.670
2015    7       25    13  15    5.0680   452.5    5.636      39.648
2015    7       25    13  21    5.0655   452.4    5.635      39.627
2015    7       25    13  26    5.0629   452.3    5.635      39.604
2015    7       25    13  32    5.0604   452.2    5.634      39.582
2015    7       25    13  37    5.0578   452.1    5.633      39.560
2015    7       25    13  43    5.0553   452.0    5.633      39.537
2015    7       25    13  48    5.0527   451.9    5.632      39.515
2015    7       25    13  54    5.0502   451.8    5.631      39.492
2015    7       25    14   0    5.0476   451.7    5.631      39.469
2015    7       25    14   5    5.0451   451.6    5.630      39.446
2015    7       25    14  11    5.0425   451.5    5.629      39.423
2015    7       25    14  16    5.0400   451.4    5.629      39.400
2015    7       25    14  22    5.0374   451.3    5.628      39.376
2015    7       25    14  28    5.0349   451.2    5.627      39.353
2015    7       25    14  33    5.0324   451.1    5.627      39.329
2015    7       25    14  39    5.0298   451.0    5.626      39.306
2015    7       25    14  44    5.0273   450.9    5.625      39.282
2015    7       25    14  50    5.0248   450.8    5.624      39.258
2015    7       25    14  55    5.0222   450.7    5.624      39.234
2015    7       25    15   1    5.0197   450.6    5.623      39.210
2015    7       25    15   7    5.0172   450.5    5.622      39.186
2015    7       25    15  12    5.0147   450.4    5.622      39.162
2015    7       25    15  18    5.0122   450.3    5.621      39.138
2015    7       25    15  23    5.0097   450.2    5.620      39.114
2015    7       25    15  29    5.0072   450.1    5.620      39.089
2015    7       25    15  34    5.0047   450.0    5.619      39.065
2015    7       25    15  40    5.0022   449.8    5.618      39.041
2015    7       25    15  46    4.9997   449.7    5.618      39.016
2015    7       25    15  51    4.9973   449.6    5.617      38.992
2015    7       25    15  57    4.9948   449.5    5.616      38.967
2015    7       25    16   2    4.9924   449.4    5.616      38.943
2015    7       25    16   8    4.9900   449.3    5.615      38.918
2015    7       25    16  14    4.9875   449.2    5.615      38.894
2015    7       25    16  19    4.9852   449.1    5.614      38.869
2015    7       25    16  25    4.9828   449.0    5.613      38.845
2015    7       25    16  30    4.9804   448.9    5.613      38.820
2015    7       25    16  36    4.9780   448.7    5.612      38.796
2015    7       25    16  41    4.9757   448.6    5.611      38.771
2015    7       25    16  47    4.9733   448.5    5.611      38.747
2015    7       25    16  53    4.9710   448.4    5.610      38.722
2015    7       25    16  58    4.9687   448.3    5.610      38.698
2015    7       25    17   4    4.9665   448.2    5.609      38.673
2015    7       25    17   9    4.9642   448.1    5.609      38.649
2015    7       25    17  15    4.9619   447.9    5.608      38.624
2015    7       25    17  20    4.9597   447.8    5.608      38.600
2015    7       25    17  26    4.9575   447.7    5.607      38.575
2015    7       25    17  32    4.9553   447.6    5.607      38.551
2015    7       25    17  37    4.9531   447.5    5.606      38.527
2015    7       25    17  43    4.9509   447.4    5.606      38.502
2015    7       25    17  48    4.9487   447.2    5.605      38.478
2015    7       25    17  54    4.9466   447.1    5.605      38.454
2015    7       25    17  59    4.9445   447.0    5.605      38.430
2015    7       25    18   5    4.9424   446.9    5.604      38.406
2015    7       25    18  11    4.9403   446.8    5.604      38.382
2015    7       25    18  16    4.9382   446.6    5.604      38.358
2015    7       25    18  22    4.9362   446.5    5.604      38.334
2015    7       25    18  27    4.9341   446.4    5.604      38.311
2015    7       25    18  33    4.9321   446.3    5.603      38.288
2015    7       25    18  39    4.9301   446.2    5.603      38.264
2015    7       25    18  44    4.9281   446.0    5.603      38.242
2015    7       25    18  50    4.9262   445.9    5.603      38.218
2015    7       25    18  55    4.9242   445.8    5.604      38.196
2015    7       25    19   1    4.9223   445.7    5.604      38.173
2015    7       25    19   6    4.9203   445.6    5.604      38.151
2015    7       25    19  12    4.9184   445.4    5.604      38.129
2015    7       25    19  17    4.9165   445.3    5.605      38.107
2015    7       25    19  23    4.9146   445.2    5.605      38.085
2015    7       25    19  29    4.9127   445.1    5.605      38.064
2015    7       25    19  34    4.9108   444.9    5.606      38.042
2015    7       25    19  40    4.9090   444.8    5.606      38.022
2015    7       25    19  45    4.9071   444.7    5.607      38.000
2015    7       25    19  51    4.9053   444.6    5.608      37.980
2015    7       25    19  57    4.9035   444.4    5.608      37.959
2015    7       25    20   2    4.9016   444.3    5.609      37.938
2015    7       25    20   8    4.8998   444.2    5.610      37.917
2015    7       25    20  13    4.8980   444.1    5.611      37.897
2015    7       25    20  19    4.8962   443.9    5.612      37.877
2015    7       25    20  24    4.8945   443.8    5.613      37.856
2015    7       25    20  30    4.8927   443.7    5.614      37.836
2015    7       25    20  36    4.8910   443.6    5.615      37.816
2015    7       25    20  41    4.8892   443.4    5.616      37.796
2015    7       25    20  47    4.8875   443.3    5.617      37.776
2015    7       25    20  52    4.8858   443.2    5.618      37.755
2015    7       25    20  58    4.8841   443.1    5.619      37.735
2015    7       25    21   3    4.8823   442.9    5.620      37.715
2015    7       25    21   9    4.8807   442.8    5.621      37.695
2015    7       25    21  15    4.8790   442.7    5.622      37.675
2015    7       25    21  20    4.8773   442.5    5.623      37.655
2015    7       25    21  26    4.8756   442.4    5.624      37.635
2015    7       25    21  31    4.8740   442.3    5.626      37.614
2015    7       25    21  37    4.8723   442.2    5.627      37.594
2015    7       25    21  42    4.8706   442.0    5.628      37.574
2015    7       25    21  48    4.8690   441.9    5.629      37.553
2015    7       25    21  54    4.8673   441.8    5.630      37.532
2015    7       25    21  59    4.8657   441.6    5.631      37.511
2015    7       25    22   5    4.8640   441.5    5.632      37.491
2015    7       25    22  10    4.8624   441.4    5.634      37.469
2015    7       25    22  16    4.8607   441.2    5.635      37.449
2015    7       25    22  22    4.8591   441.1    5.636      37.427
2015    7       25    22  27    4.8574   441.0    5.637      37.406
2015    7       25    22  33    4.8558   440.8    5.638      37.384
2015    7       25    22  38    4.8541   440.7    5.639      37.362
2015    7       25    22  44    4.8525   440.6    5.640      37.340
2015    7       25    22  49    4.8509   440.4    5.641      37.318
2015    7       25    22  55    4.8492   440.3    5.642      37.296
2015    7       25    23   1    4.8476   440.2    5.643      37.274
2015    7       25    23   6    4.8460   440.0    5.644      37.251
2015    7       25    23  12    4.8444   439.9    5.644      37.228
2015    7       25    23  17    4.8427   439.8    5.645      37.206
2015    7       25    23  23    4.8411   439.6    5.646      37.183
2015    7       25    23  29    4.8395   439.5    5.647      37.160
2015    7       25    23  34    4.8379   439.3    5.648      37.137
2015    7       25    23  40    4.8363   439.2    5.648      37.113
2015    7       25    23  45    4.8348   439.1    5.649      37.090
2015    7       25    23  51    4.8332   438.9    5.650      37.067
2015    7       25    23  56    4.8316   438.8    5.651      37.043
2015    7       26     0   2    4.8300   438.7    5.651      37.019
2015    7       26     0   8    4.8285   438.5    5.652      36.996
2015    7       26     0  13    4.8269   438.4    5.653      36.972
2015    7       26     0  19    4.8254   438.2    5.653      36.948
2015    7       26     0  24    4.8239   438.1    5.654      36.924
2015    7       26     0  30    4.8224   438.0    5.655      36.900
2015    7       26     0  35    4.8208   437.8    5.655      36.876
2015    7       26     0  41    4.8193   437.7    5.656      36.852
2015    7       26     0  47    4.8178   437.5    5.656      36.827
2015    7       26     0  52    4.8164   437.4    5.657      36.803
2015    7       26     0  58    4.8149   437.3    5.658      36.779
2015    7       26     1   3    4.8134   437.1    5.658      36.754
2015    7       26     1   9    4.8120   437.0    5.659      36.730
2015    7       26     1  14    4.8106   436.8    5.659      36.706
2015    7       26     1  20    4.8091   436.7    5.660      36.681
2015    7       26     1  26    4.8078   436.5    5.661      36.657
2015    7       26     1  31    4.8064   436.4    5.661      36.632
2015    7       26     1  37    4.8050   436.2    5.662      36.608
2015    7       26     1  42    4.8036   436.1    5.663      36.584
2015    7       26     1  48    4.8023   435.9    5.663      36.560
2015    7       26     1  53    4.8010   435.8    5.664      36.536
2015    7       26     1  59    4.7997   435.6    5.665      36.512
2015    7       26     2   5    4.7984   435.5    5.666      36.488
2015    7       26     2  10    4.7972   435.3    5.667      36.465
2015    7       26     2  16    4.7960   435.2    5.668      36.441
2015    7       26     2  21    4.7947   435.0    5.669      36.418
2015    7       26     2  27    4.7936   434.9    5.670      36.395
2015    7       26     2  32    4.7924   434.7    5.671      36.373
2015    7       26     2  38    4.7913   434.5    5.673      36.350
2015    7       26     2  44    4.7902   434.4    5.674      36.328
2015    7       26     2  49    4.7892   434.2    5.676      36.306
2015    7       26     2  55    4.7881   434.1    5.677      36.284
2015    7       26     3   0    4.7871   433.9    5.679      36.263
2015    7       26     3   6    4.7862   433.7    5.681      36.242
