year    month   day   hour  minute  B_enl V_enl   n_enl       T_enl
[year] [month] [day] [hour][minute] [nT]  [km/s]  [cm-3]      [kK]
2015    7       26     0   1    4.4905   429.1    5.917      35.933
2015    7       26     0   7    4.4907   429.0    5.920      35.925
2015    7       26     0  13    4.4908   428.9    5.923      35.918
2015    7       26     0  18    4.4910   428.8    5.927      35.910
2015    7       26     0  24    4.4911   428.6    5.930      35.903
2015    7       26     0  30    4.4913   428.5    5.933      35.896
2015    7       26     0  36    4.4915   428.4    5.937      35.888
2015    7       26     0  42    4.4917   428.3    5.940      35.881
2015    7       26     0  47    4.4919   428.2    5.944      35.874
2015    7       26     0  53    4.4920   428.1    5.947      35.867
2015    7       26     0  59    4.4923   428.0    5.951      35.860
2015    7       26     1   5    4.4925   427.9    5.955      35.853
2015    7       26     1  11    4.4927   427.7    5.958      35.847
2015    7       26     1  16    4.4929   427.6    5.962      35.840
2015    7       26     1  22    4.4931   427.5    5.966      35.834
2015    7       26     1  28    4.4934   427.4    5.970      35.828
2015    7       26     1  34    4.4936   427.3    5.973      35.822
2015    7       26     1  40    4.4939   427.2    5.977      35.816
2015    7       26     1  45    4.4941   427.0    5.981      35.811
2015    7       26     1  51    4.4944   426.9    5.985      35.805
2015    7       26     1  57    4.4946   426.8    5.989      35.800
2015    7       26     2   3    4.4949   426.7    5.993      35.795
2015    7       26     2   8    4.4951   426.6    5.997      35.790
2015    7       26     2  14    4.4954   426.5    6.001      35.785
2015    7       26     2  20    4.4957   426.3    6.005      35.780
2015    7       26     2  26    4.4960   426.2    6.009      35.776
2015    7       26     2  32    4.4962   426.1    6.014      35.771
2015    7       26     2  37    4.4965   426.0    6.018      35.767
2015    7       26     2  43    4.4968   425.9    6.022      35.763
2015    7       26     2  49    4.4971   425.7    6.026      35.758
2015    7       26     2  55    4.4974   425.6    6.031      35.755
2015    7       26     3   1    4.4977   425.5    6.035      35.751
2015    7       26     3   6    4.4980   425.4    6.039      35.747
2015    7       26     3  12    4.4983   425.3    6.044      35.743
2015    7       26     3  18    4.4987   425.1    6.048      35.740
2015    7       26     3  24    4.4990   425.0    6.053      35.736
2015    7       26     3  30    4.4993   424.9    6.057      35.733
2015    7       26     3  35    4.4997   424.8    6.062      35.729
2015    7       26     3  41    4.5000   424.7    6.066      35.726
2015    7       26     3  47    4.5004   424.5    6.071      35.722
2015    7       26     3  53    4.5008   424.4    6.075      35.719
2015    7       26     3  59    4.5012   424.3    6.080      35.716
2015    7       26     4   4    4.5016   424.2    6.084      35.713
2015    7       26     4  10    4.5020   424.0    6.089      35.709
2015    7       26     4  16    4.5024   423.9    6.094      35.706
2015    7       26     4  22    4.5029   423.8    6.098      35.703
2015    7       26     4  27    4.5034   423.7    6.103      35.700
2015    7       26     4  33    4.5038   423.6    6.108      35.697
2015    7       26     4  39    4.5043   423.4    6.113      35.694
2015    7       26     4  45    4.5048   423.3    6.118      35.691
2015    7       26     4  51    4.5053   423.2    6.122      35.688
2015    7       26     4  56    4.5059   423.1    6.127      35.685
2015    7       26     5   2    4.5064   422.9    6.132      35.682
2015    7       26     5   8    4.5070   422.8    6.137      35.679
2015    7       26     5  14    4.5076   422.7    6.142      35.676
2015    7       26     5  20    4.5082   422.6    6.147      35.673
2015    7       26     5  25    4.5088   422.4    6.152      35.670
2015    7       26     5  31    4.5095   422.3    6.157      35.668
2015    7       26     5  37    4.5102   422.2    6.163      35.665
2015    7       26     5  43    4.5109   422.1    6.168      35.662
2015    7       26     5  49    4.5115   422.0    6.173      35.660
2015    7       26     5  54    4.5123   421.8    6.178      35.657
2015    7       26     6   0    4.5130   421.7    6.184      35.654
2015    7       26     6   6    4.5138   421.6    6.189      35.652
2015    7       26     6  12    4.5145   421.5    6.194      35.649
2015    7       26     6  18    4.5153   421.3    6.200      35.647
2015    7       26     6  23    4.5161   421.2    6.205      35.644
2015    7       26     6  29    4.5170   421.1    6.211      35.642
2015    7       26     6  35    4.5178   421.0    6.216      35.639
2015    7       26     6  41    4.5187   420.9    6.222      35.637
2015    7       26     6  47    4.5195   420.7    6.227      35.635
2015    7       26     6  52    4.5204   420.6    6.233      35.632
2015    7       26     6  58    4.5213   420.5    6.238      35.630
2015    7       26     7   4    4.5221   420.4    6.244      35.628
2015    7       26     7  10    4.5230   420.3    6.249      35.625
2015    7       26     7  16    4.5239   420.1    6.255      35.623
2015    7       26     7  21    4.5248   420.0    6.260      35.621
2015    7       26     7  27    4.5257   419.9    6.266      35.618
2015    7       26     7  33    4.5266   419.8    6.272      35.616
2015    7       26     7  39    4.5275   419.6    6.277      35.614
2015    7       26     7  45    4.5284   419.5    6.283      35.612
2015    7       26     7  50    4.5293   419.4    6.288      35.609
2015    7       26     7  56    4.5302   419.3    6.294      35.607
2015    7       26     8   2    4.5311   419.2    6.299      35.605
2015    7       26     8   8    4.5320   419.0    6.305      35.602
2015    7       26     8  14    4.5329   418.9    6.310      35.600
2015    7       26     8  19    4.5338   418.8    6.316      35.597
2015    7       26     8  25    4.5347   418.7    6.321      35.595
2015    7       26     8  31    4.5356   418.5    6.326      35.592
2015    7       26     8  37    4.5365   418.4    6.332      35.590
2015    7       26     8  43    4.5374   418.3    6.337      35.587
2015    7       26     8  48    4.5383   418.2    6.342      35.585
2015    7       26     8  54    4.5393   418.0    6.347      35.583
2015    7       26     9   0    4.5402   417.9    6.352      35.580
2015    7       26     9   6    4.5411   417.8    6.358      35.578
2015    7       26     9  12    4.5421   417.7    6.363      35.576
2015    7       26     9  17    4.5431   417.5    6.368      35.574
2015    7       26     9  23    4.5440   417.4    6.373      35.571
2015    7       26     9  29    4.5450   417.3    6.378      35.569
2015    7       26     9  35    4.5460   417.2    6.383      35.567
2015    7       26     9  41    4.5471   417.0    6.388      35.565
2015    7       26     9  46    4.5481   416.9    6.393      35.563
2015    7       26     9  52    4.5492   416.8    6.398      35.562
2015    7       26     9  58    4.5503   416.7    6.403      35.560
2015    7       26    10   4    4.5513   416.5    6.408      35.559
2015    7       26    10  10    4.5525   416.4    6.413      35.557
2015    7       26    10  15    4.5536   416.3    6.418      35.556
2015    7       26    10  21    4.5548   416.2    6.423      35.554
2015    7       26    10  27    4.5560   416.0    6.428      35.553
2015    7       26    10  33    4.5572   415.9    6.433      35.552
2015    7       26    10  38    4.5584   415.8    6.438      35.551
2015    7       26    10  44    4.5597   415.7    6.443      35.550
2015    7       26    10  50    4.5609   415.5    6.448      35.549
2015    7       26    10  56    4.5622   415.4    6.453      35.548
2015    7       26    11   2    4.5636   415.3    6.458      35.548
2015    7       26    11   7    4.5649   415.2    6.463      35.547
2015    7       26    11  13    4.5663   415.0    6.468      35.547
2015    7       26    11  19    4.5678   414.9    6.473      35.547
2015    7       26    11  25    4.5692   414.8    6.478      35.546
2015    7       26    11  31    4.5707   414.7    6.483      35.546
2015    7       26    11  36    4.5721   414.5    6.489      35.546
2015    7       26    11  42    4.5737   414.4    6.494      35.546
2015    7       26    11  48    4.5752   414.3    6.499      35.547
2015    7       26    11  54    4.5768   414.2    6.505      35.547
2015    7       26    11  59    4.5784   414.0    6.510      35.547
2015    7       26    12   5    4.5801   413.9    6.515      35.548
2015    7       26    12  11    4.5817   413.8    6.521      35.549
2015    7       26    12  17    4.5834   413.7    6.527      35.550
2015    7       26    12  23    4.5851   413.5    6.532      35.551
2015    7       26    12  28    4.5869   413.4    6.538      35.552
2015    7       26    12  34    4.5887   413.3    6.544      35.554
2015    7       26    12  40    4.5905   413.2    6.550      35.555
2015    7       26    12  46    4.5923   413.0    6.556      35.557
2015    7       26    12  52    4.5942   412.9    6.562      35.559
2015    7       26    12  57    4.5961   412.8    6.568      35.562
2015    7       26    13   3    4.5980   412.7    6.575      35.564
2015    7       26    13   9    4.6000   412.5    6.581      35.567
2015    7       26    13  15    4.6020   412.4    6.587      35.570
2015    7       26    13  21    4.6040   412.3    6.594      35.573
2015    7       26    13  26    4.6060   412.2    6.601      35.577
2015    7       26    13  32    4.6081   412.1    6.608      35.580
2015    7       26    13  38    4.6102   411.9    6.614      35.584
2015    7       26    13  44    4.6123   411.8    6.621      35.588
2015    7       26    13  50    4.6144   411.7    6.628      35.593
2015    7       26    13  55    4.6165   411.6    6.635      35.597
2015    7       26    14   1    4.6187   411.5    6.643      35.602
2015    7       26    14   7    4.6209   411.4    6.650      35.607
2015    7       26    14  13    4.6231   411.2    6.657      35.612
2015    7       26    14  19    4.6253   411.1    6.665      35.618
2015    7       26    14  24    4.6275   411.0    6.672      35.623
2015    7       26    14  30    4.6298   410.9    6.680      35.629
2015    7       26    14  36    4.6320   410.8    6.687      35.635
2015    7       26    14  42    4.6343   410.7    6.695      35.641
2015    7       26    14  48    4.6366   410.6    6.703      35.647
2015    7       26    14  53    4.6389   410.5    6.710      35.653
2015    7       26    14  59    4.6412   410.3    6.718      35.660
2015    7       26    15   5    4.6435   410.2    6.726      35.666
2015    7       26    15  11    4.6458   410.1    6.734      35.673
2015    7       26    15  17    4.6482   410.0    6.741      35.680
2015    7       26    15  23    4.6505   409.9    6.749      35.688
2015    7       26    15  28    4.6528   409.8    6.757      35.695
2015    7       26    15  34    4.6552   409.7    6.765      35.703
2015    7       26    15  40    4.6575   409.6    6.772      35.710
2015    7       26    15  46    4.6599   409.5    6.780      35.718
2015    7       26    15  51    4.6623   409.4    6.788      35.727
2015    7       26    15  57    4.6647   409.3    6.795      35.735
2015    7       26    16   3    4.6671   409.2    6.803      35.743
2015    7       26    16   9    4.6695   409.0    6.810      35.752
2015    7       26    16  15    4.6719   408.9    6.818      35.761
2015    7       26    16  20    4.6743   408.8    6.825      35.770
2015    7       26    16  26    4.6768   408.7    6.833      35.780
2015    7       26    16  32    4.6792   408.6    6.840      35.789
2015    7       26    16  38    4.6817   408.5    6.847      35.799
2015    7       26    16  44    4.6842   408.4    6.855      35.809
2015    7       26    16  49    4.6867   408.3    6.862      35.819
2015    7       26    16  55    4.6893   408.2    6.869      35.830
2015    7       26    17   1    4.6918   408.1    6.876      35.840
2015    7       26    17   7    4.6944   408.0    6.883      35.851
2015    7       26    17  13    4.6970   407.9    6.890      35.862
2015    7       26    17  18    4.6997   407.8    6.898      35.873
2015    7       26    17  24    4.7023   407.7    6.905      35.884
2015    7       26    17  30    4.7050   407.6    6.912      35.895
2015    7       26    17  36    4.7077   407.5    6.919      35.907
2015    7       26    17  42    4.7104   407.4    6.926      35.919
2015    7       26    17  47    4.7132   407.3    6.933      35.931
2015    7       26    17  53    4.7160   407.2    6.940      35.943
2015    7       26    17  59    4.7188   407.1    6.947      35.956
2015    7       26    18   5    4.7217   407.0    6.953      35.968
2015    7       26    18  11    4.7245   406.9    6.960      35.981
2015    7       26    18  16    4.7275   406.9    6.967      35.994
2015    7       26    18  22    4.7304   406.8    6.974      36.008
2015    7       26    18  28    4.7333   406.7    6.981      36.021
2015    7       26    18  34    4.7363   406.6    6.987      36.035
2015    7       26    18  39    4.7393   406.5    6.994      36.049
2015    7       26    18  45    4.7422   406.4    7.001      36.063
2015    7       26    18  51    4.7453   406.3    7.007      36.078
2015    7       26    18  57    4.7483   406.2    7.014      36.093
2015    7       26    19   3    4.7513   406.1    7.021      36.107
2015    7       26    19   8    4.7544   406.1    7.027      36.122
2015    7       26    19  14    4.7575   406.0    7.034      36.137
2015    7       26    19  20    4.7605   405.9    7.040      36.152
2015    7       26    19  26    4.7637   405.8    7.047      36.167
2015    7       26    19  32    4.7668   405.7    7.053      36.182
2015    7       26    19  37    4.7699   405.6    7.060      36.198
2015    7       26    19  43    4.7730   405.5    7.066      36.213
2015    7       26    19  49    4.7762   405.5    7.073      36.228
2015    7       26    19  55    4.7794   405.4    7.079      36.244
2015    7       26    20   1    4.7826   405.3    7.086      36.260
2015    7       26    20   6    4.7858   405.2    7.092      36.275
2015    7       26    20  12    4.7891   405.1    7.099      36.291
2015    7       26    20  18    4.7923   405.1    7.105      36.307
2015    7       26    20  24    4.7956   405.0    7.112      36.323
2015    7       26    20  29    4.7988   404.9    7.119      36.339
2015    7       26    20  35    4.8021   404.8    7.125      36.355
2015    7       26    20  41    4.8054   404.7    7.132      36.371
2015    7       26    20  47    4.8087   404.7    7.139      36.388
2015    7       26    20  53    4.8121   404.6    7.145      36.404
2015    7       26    20  58    4.8154   404.5    7.152      36.421
2015    7       26    21   4    4.8187   404.4    7.159      36.437
2015    7       26    21  10    4.8221   404.4    7.166      36.454
2015    7       26    21  16    4.8255   404.3    7.173      36.471
2015    7       26    21  22    4.8288   404.2    7.180      36.488
2015    7       26    21  27    4.8322   404.1    7.187      36.505
2015    7       26    21  33    4.8356   404.1    7.194      36.523
2015    7       26    21  39    4.8390   404.0    7.201      36.540
2015    7       26    21  45    4.8424   403.9    7.209      36.557
2015    7       26    21  50    4.8458   403.8    7.216      36.575
2015    7       26    21  56    4.8493   403.8    7.223      36.592
2015    7       26    22   2    4.8527   403.7    7.231      36.610
2015    7       26    22   8    4.8562   403.6    7.238      36.628
2015    7       26    22  14    4.8596   403.6    7.246      36.646
2015    7       26    22  19    4.8631   403.5    7.254      36.664
2015    7       26    22  25    4.8666   403.4    7.261      36.682
2015    7       26    22  31    4.8701   403.4    7.269      36.701
2015    7       26    22  37    4.8737   403.3    7.277      36.719
2015    7       26    22  43    4.8772   403.2    7.285      36.738
2015    7       26    22  48    4.8808   403.2    7.293      36.757
2015    7       26    22  54    4.8844   403.1    7.301      36.777
2015    7       26    23   0    4.8879   403.0    7.310      36.796
2015    7       26    23   6    4.8916   403.0    7.318      36.816
2015    7       26    23  11    4.8952   402.9    7.326      36.837
2015    7       26    23  17    4.8989   402.9    7.335      36.857
2015    7       26    23  23    4.9026   402.8    7.344      36.878
2015    7       26    23  29    4.9063   402.7    7.352      36.900
2015    7       26    23  35    4.9100   402.7    7.361      36.922
2015    7       26    23  40    4.9138   402.6    7.370      36.944
2015    7       26    23  46    4.9175   402.6    7.378      36.967
2015    7       26    23  52    4.9213   402.5    7.387      36.991
2015    7       26    23  58    4.9250   402.5    7.396      37.016
2015    7       27     0   4    4.9288   402.4    7.405      37.041
2015    7       27     0   9    4.9326   402.4    7.413      37.066
2015    7       27     0  15    4.9365   402.3    7.422      37.092
2015    7       27     0  21    4.9402   402.3    7.431      37.118
2015    7       27     0  27    4.9441   402.2    7.439      37.145
2015    7       27     0  32    4.9479   402.2    7.447      37.172
2015    7       27     0  38    4.9517   402.1    7.456      37.199
2015    7       27     0  44    4.9555   402.1    7.464      37.226
2015    7       27     0  50    4.9594   402.1    7.472      37.254
2015    7       27     0  56    4.9632   402.0    7.480      37.282
2015    7       27     1   1    4.9670   402.0    7.487      37.311
2015    7       27     1   7    4.9708   401.9    7.495      37.339
2015    7       27     1  13    4.9745   401.9    7.502      37.367
2015    7       27     1  19    4.9783   401.9    7.510      37.396
2015    7       27     1  25    4.9821   401.8    7.517      37.424
2015    7       27     1  30    4.9858   401.8    7.524      37.452
2015    7       27     1  36    4.9896   401.8    7.531      37.480
2015    7       27     1  42    4.9933   401.7    7.537      37.508
2015    7       27     1  48    4.9970   401.7    7.544      37.536
2015    7       27     1  53    5.0007   401.7    7.550      37.564
2015    7       27     1  59    5.0043   401.7    7.556      37.592
2015    7       27     2   5    5.0080   401.6    7.562      37.619
2015    7       27     2  11    5.0117   401.6    7.568      37.647
2015    7       27     2  17    5.0153   401.6    7.574      37.674
2015    7       27     2  22    5.0189   401.5    7.580      37.701
2015    7       27     2  28    5.0225   401.5    7.585      37.727
2015    7       27     2  34    5.0261   401.5    7.591      37.754
2015    7       27     2  40    5.0297   401.5    7.596      37.780
2015    7       27     2  46    5.0332   401.4    7.601      37.806
2015    7       27     2  51    5.0368   401.4    7.606      37.832
2015    7       27     2  57    5.0404   401.4    7.611      37.857
2015    7       27     3   3    5.0439   401.3    7.616      37.882
2015    7       27     3   9    5.0474   401.3    7.621      37.907
2015    7       27     3  14    5.0510   401.3    7.626      37.931
2015    7       27     3  20    5.0545   401.3    7.631      37.956
2015    7       27     3  26    5.0580   401.2    7.636      37.980
2015    7       27     3  32    5.0615   401.2    7.640      38.004
2015    7       27     3  38    5.0650   401.2    7.645      38.028
2015    7       27     3  43    5.0686   401.2    7.650      38.051
2015    7       27     3  49    5.0721   401.1    7.654      38.074
2015    7       27     3  55    5.0756   401.1    7.659      38.097
2015    7       27     4   1    5.0791   401.1    7.663      38.120
2015    7       27     4   7    5.0826   401.1    7.668      38.143
