year    month   day   hour  minute  B_enl V_enl   n_enl       T_enl
[year] [month] [day] [hour][minute] [nT]  [km/s]  [cm-3]      [kK]
2015    3        1     0   5    4.4639   618.8    2.793      52.514
2015    3        1     0  10    4.4614   618.6    2.794      52.457
2015    3        1     0  15    4.4590   618.3    2.794      52.401
2015    3        1     0  21    4.4565   618.1    2.794      52.345
2015    3        1     0  26    4.4540   617.9    2.794      52.288
2015    3        1     0  32    4.4516   617.6    2.794      52.232
2015    3        1     0  37    4.4492   617.4    2.794      52.175
2015    3        1     0  42    4.4468   617.2    2.794      52.119
2015    3        1     0  48    4.4443   616.9    2.794      52.062
2015    3        1     0  53    4.4419   616.7    2.795      52.005
2015    3        1     0  58    4.4395   616.5    2.795      51.949
2015    3        1     1   4    4.4371   616.2    2.795      51.892
2015    3        1     1   9    4.4347   616.0    2.794      51.834
2015    3        1     1  15    4.4323   615.8    2.794      51.777
2015    3        1     1  20    4.4299   615.6    2.794      51.720
2015    3        1     1  25    4.4275   615.3    2.794      51.662
2015    3        1     1  31    4.4250   615.1    2.794      51.604
2015    3        1     1  36    4.4226   614.9    2.794      51.546
2015    3        1     1  41    4.4201   614.6    2.794      51.488
2015    3        1     1  47    4.4177   614.4    2.793      51.429
2015    3        1     1  52    4.4152   614.2    2.793      51.370
2015    3        1     1  58    4.4128   613.9    2.793      51.311
2015    3        1     2   3    4.4103   613.7    2.792      51.252
2015    3        1     2   8    4.4078   613.5    2.792      51.192
2015    3        1     2  14    4.4054   613.2    2.792      51.133
2015    3        1     2  19    4.4029   613.0    2.791      51.072
2015    3        1     2  24    4.4004   612.8    2.791      51.012
2015    3        1     2  30    4.3979   612.6    2.791      50.952
2015    3        1     2  35    4.3954   612.3    2.790      50.892
2015    3        1     2  41    4.3929   612.1    2.790      50.831
2015    3        1     2  46    4.3905   611.9    2.789      50.770
2015    3        1     2  51    4.3880   611.6    2.789      50.710
2015    3        1     2  57    4.3855   611.4    2.788      50.649
2015    3        1     3   2    4.3830   611.2    2.788      50.588
2015    3        1     3   8    4.3805   610.9    2.787      50.527
2015    3        1     3  13    4.3780   610.7    2.787      50.465
2015    3        1     3  18    4.3754   610.5    2.786      50.404
2015    3        1     3  24    4.3730   610.3    2.786      50.342
2015    3        1     3  29    4.3704   610.0    2.785      50.280
2015    3        1     3  34    4.3679   609.8    2.785      50.218
2015    3        1     3  40    4.3655   609.6    2.784      50.156
2015    3        1     3  45    4.3629   609.3    2.784      50.094
2015    3        1     3  51    4.3604   609.1    2.783      50.031
2015    3        1     3  56    4.3578   608.9    2.783      49.969
2015    3        1     4   1    4.3553   608.6    2.782      49.906
2015    3        1     4   7    4.3528   608.4    2.781      49.843
2015    3        1     4  12    4.3503   608.2    2.781      49.781
2015    3        1     4  17    4.3478   607.9    2.780      49.718
2015    3        1     4  23    4.3453   607.7    2.780      49.656
2015    3        1     4  28    4.3428   607.4    2.779      49.594
2015    3        1     4  34    4.3403   607.2    2.778      49.532
2015    3        1     4  39    4.3378   607.0    2.778      49.470
2015    3        1     4  44    4.3353   606.7    2.777      49.408
2015    3        1     4  50    4.3328   606.5    2.777      49.347
2015    3        1     4  55    4.3304   606.2    2.776      49.286
2015    3        1     5   0    4.3279   606.0    2.776      49.225
2015    3        1     5   6    4.3256   605.7    2.776      49.164
2015    3        1     5  11    4.3231   605.5    2.775      49.104
2015    3        1     5  17    4.3206   605.2    2.775      49.044
2015    3        1     5  22    4.3182   605.0    2.774      48.984
2015    3        1     5  27    4.3159   604.7    2.774      48.924
2015    3        1     5  33    4.3134   604.5    2.774      48.864
2015    3        1     5  38    4.3111   604.2    2.773      48.804
2015    3        1     5  43    4.3087   604.0    2.773      48.744
2015    3        1     5  49    4.3064   603.7    2.773      48.684
2015    3        1     5  54    4.3040   603.4    2.773      48.624
2015    3        1     6   0    4.3017   603.2    2.772      48.563
2015    3        1     6   5    4.2993   602.9    2.772      48.502
2015    3        1     6  10    4.2970   602.6    2.772      48.442
2015    3        1     6  16    4.2947   602.4    2.772      48.380
2015    3        1     6  21    4.2924   602.1    2.772      48.319
2015    3        1     6  27    4.2902   601.8    2.772      48.257
2015    3        1     6  32    4.2879   601.5    2.772      48.195
2015    3        1     6  37    4.2856   601.3    2.771      48.133
2015    3        1     6  43    4.2834   601.0    2.771      48.071
2015    3        1     6  48    4.2812   600.7    2.771      48.008
2015    3        1     6  53    4.2790   600.4    2.771      47.945
2015    3        1     6  59    4.2767   600.1    2.771      47.883
2015    3        1     7   4    4.2745   599.8    2.771      47.820
2015    3        1     7  10    4.2724   599.5    2.771      47.757
2015    3        1     7  15    4.2702   599.2    2.771      47.693
2015    3        1     7  20    4.2680   598.9    2.771      47.630
2015    3        1     7  26    4.2659   598.6    2.771      47.567
2015    3        1     7  31    4.2638   598.3    2.771      47.504
2015    3        1     7  36    4.2617   598.0    2.771      47.441
2015    3        1     7  42    4.2595   597.7    2.771      47.379
2015    3        1     7  47    4.2575   597.4    2.772      47.316
2015    3        1     7  53    4.2554   597.1    2.772      47.254
2015    3        1     7  58    4.2533   596.8    2.772      47.192
2015    3        1     8   3    4.2512   596.5    2.772      47.131
2015    3        1     8   9    4.2492   596.2    2.772      47.069
2015    3        1     8  14    4.2472   595.9    2.773      47.008
2015    3        1     8  19    4.2451   595.6    2.773      46.948
2015    3        1     8  25    4.2431   595.3    2.773      46.887
2015    3        1     8  30    4.2411   595.0    2.774      46.827
2015    3        1     8  36    4.2390   594.7    2.774      46.768
2015    3        1     8  41    4.2370   594.4    2.775      46.708
2015    3        1     8  46    4.2351   594.1    2.775      46.649
2015    3        1     8  52    4.2330   593.8    2.776      46.590
2015    3        1     8  57    4.2310   593.5    2.776      46.532
2015    3        1     9   2    4.2290   593.2    2.777      46.474
2015    3        1     9   8    4.2270   592.9    2.777      46.416
2015    3        1     9  13    4.2249   592.6    2.778      46.358
2015    3        1     9  19    4.2229   592.3    2.779      46.300
2015    3        1     9  24    4.2208   592.0    2.779      46.243
2015    3        1     9  29    4.2188   591.6    2.780      46.186
2015    3        1     9  35    4.2167   591.3    2.781      46.129
2015    3        1     9  40    4.2146   591.0    2.782      46.072
2015    3        1     9  46    4.2126   590.7    2.783      46.015
2015    3        1     9  51    4.2105   590.4    2.784      45.959
2015    3        1     9  56    4.2084   590.1    2.785      45.902
2015    3        1    10   2    4.2063   589.8    2.785      45.846
2015    3        1    10   7    4.2042   589.5    2.786      45.789
2015    3        1    10  12    4.2020   589.2    2.787      45.733
2015    3        1    10  18    4.1999   588.9    2.788      45.677
2015    3        1    10  23    4.1978   588.6    2.789      45.621
2015    3        1    10  29    4.1957   588.3    2.790      45.565
2015    3        1    10  34    4.1935   588.0    2.791      45.510
2015    3        1    10  39    4.1914   587.7    2.792      45.454
2015    3        1    10  45    4.1893   587.4    2.793      45.398
2015    3        1    10  50    4.1872   587.1    2.794      45.342
2015    3        1    10  55    4.1851   586.8    2.796      45.286
2015    3        1    11   1    4.1829   586.5    2.797      45.231
2015    3        1    11   6    4.1808   586.2    2.798      45.175
2015    3        1    11  12    4.1787   585.8    2.799      45.120
2015    3        1    11  17    4.1766   585.5    2.800      45.064
2015    3        1    11  22    4.1745   585.2    2.801      45.009
2015    3        1    11  28    4.1725   584.9    2.802      44.953
2015    3        1    11  33    4.1704   584.6    2.803      44.898
2015    3        1    11  38    4.1684   584.3    2.805      44.843
2015    3        1    11  44    4.1664   584.0    2.806      44.789
2015    3        1    11  49    4.1644   583.7    2.807      44.734
2015    3        1    11  55    4.1624   583.4    2.808      44.680
2015    3        1    12   0    4.1605   583.0    2.810      44.626
2015    3        1    12   5    4.1586   582.7    2.811      44.573
2015    3        1    12  11    4.1567   582.4    2.812      44.520
2015    3        1    12  16    4.1548   582.1    2.813      44.467
2015    3        1    12  21    4.1530   581.8    2.815      44.414
2015    3        1    12  27    4.1511   581.5    2.816      44.361
2015    3        1    12  32    4.1493   581.2    2.818      44.309
2015    3        1    12  38    4.1475   580.8    2.819      44.257
2015    3        1    12  43    4.1457   580.5    2.820      44.205
2015    3        1    12  48    4.1440   580.2    2.822      44.153
2015    3        1    12  54    4.1422   579.9    2.823      44.101
2015    3        1    12  59    4.1405   579.6    2.824      44.050
2015    3        1    13   5    4.1387   579.3    2.826      43.998
2015    3        1    13  10    4.1370   578.9    2.827      43.946
2015    3        1    13  15    4.1353   578.6    2.828      43.894
2015    3        1    13  21    4.1336   578.3    2.830      43.841
2015    3        1    13  26    4.1319   578.0    2.831      43.789
2015    3        1    13  31    4.1301   577.6    2.832      43.736
2015    3        1    13  37    4.1284   577.3    2.833      43.682
2015    3        1    13  42    4.1267   577.0    2.834      43.629
2015    3        1    13  48    4.1250   576.7    2.835      43.575
2015    3        1    13  53    4.1233   576.3    2.837      43.521
2015    3        1    13  58    4.1216   576.0    2.838      43.466
2015    3        1    14   4    4.1198   575.7    2.838      43.411
2015    3        1    14   9    4.1182   575.3    2.839      43.355
2015    3        1    14  14    4.1165   575.0    2.840      43.300
2015    3        1    14  20    4.1148   574.7    2.841      43.243
2015    3        1    14  25    4.1132   574.3    2.842      43.186
2015    3        1    14  31    4.1115   574.0    2.843      43.129
2015    3        1    14  36    4.1098   573.6    2.844      43.072
2015    3        1    14  41    4.1082   573.3    2.844      43.014
2015    3        1    14  47    4.1065   572.9    2.845      42.956
2015    3        1    14  52    4.1049   572.6    2.846      42.897
2015    3        1    14  57    4.1033   572.2    2.847      42.838
2015    3        1    15   3    4.1017   571.9    2.847      42.779
2015    3        1    15   8    4.1001   571.5    2.848      42.720
2015    3        1    15  14    4.0986   571.2    2.849      42.661
2015    3        1    15  19    4.0971   570.8    2.850      42.602
2015    3        1    15  24    4.0955   570.5    2.850      42.542
2015    3        1    15  30    4.0939   570.1    2.851      42.483
2015    3        1    15  35    4.0924   569.8    2.852      42.423
2015    3        1    15  40    4.0909   569.4    2.853      42.364
2015    3        1    15  46    4.0894   569.0    2.854      42.304
2015    3        1    15  51    4.0879   568.7    2.855      42.245
2015    3        1    15  57    4.0864   568.3    2.856      42.186
2015    3        1    16   2    4.0850   568.0    2.857      42.127
2015    3        1    16   7    4.0835   567.6    2.858      42.069
2015    3        1    16  13    4.0820   567.3    2.859      42.010
2015    3        1    16  18    4.0806   566.9    2.860      41.951
2015    3        1    16  24    4.0791   566.5    2.861      41.893
2015    3        1    16  29    4.0777   566.2    2.862      41.834
2015    3        1    16  34    4.0762   565.8    2.863      41.776
2015    3        1    16  40    4.0747   565.4    2.865      41.718
2015    3        1    16  45    4.0733   565.1    2.866      41.660
2015    3        1    16  50    4.0718   564.7    2.867      41.602
2015    3        1    16  56    4.0703   564.3    2.869      41.544
2015    3        1    17   1    4.0689   564.0    2.870      41.486
2015    3        1    17   7    4.0674   563.6    2.871      41.428
2015    3        1    17  12    4.0659   563.2    2.873      41.370
2015    3        1    17  17    4.0645   562.8    2.874      41.312
2015    3        1    17  23    4.0630   562.5    2.876      41.254
2015    3        1    17  28    4.0616   562.1    2.878      41.197
2015    3        1    17  33    4.0602   561.7    2.879      41.139
2015    3        1    17  39    4.0587   561.3    2.881      41.082
2015    3        1    17  44    4.0574   561.0    2.883      41.025
2015    3        1    17  50    4.0560   560.6    2.885      40.968
2015    3        1    17  55    4.0546   560.2    2.887      40.911
2015    3        1    18   0    4.0533   559.8    2.889      40.855
2015    3        1    18   6    4.0519   559.4    2.891      40.799
2015    3        1    18  11    4.0506   559.1    2.893      40.744
2015    3        1    18  16    4.0493   558.7    2.896      40.689
2015    3        1    18  22    4.0481   558.3    2.898      40.634
2015    3        1    18  27    4.0469   557.9    2.901      40.580
2015    3        1    18  33    4.0457   557.5    2.903      40.527
2015    3        1    18  38    4.0445   557.1    2.906      40.474
2015    3        1    18  43    4.0433   556.8    2.908      40.422
2015    3        1    18  49    4.0423   556.4    2.911      40.370
2015    3        1    18  54    4.0411   556.0    2.914      40.319
2015    3        1    18  59    4.0401   555.6    2.917      40.269
2015    3        1    19   5    4.0390   555.2    2.920      40.219
2015    3        1    19  10    4.0380   554.9    2.923      40.170
2015    3        1    19  16    4.0371   554.5    2.926      40.122
2015    3        1    19  21    4.0362   554.1    2.930      40.074
2015    3        1    19  26    4.0352   553.7    2.933      40.027
2015    3        1    19  32    4.0343   553.3    2.936      39.980
2015    3        1    19  37    4.0334   553.0    2.940      39.934
2015    3        1    19  43    4.0325   552.6    2.943      39.888
2015    3        1    19  48    4.0317   552.2    2.947      39.843
2015    3        1    19  53    4.0309   551.8    2.951      39.798
2015    3        1    19  59    4.0301   551.4    2.954      39.754
2015    3        1    20   4    4.0293   551.1    2.958      39.709
2015    3        1    20   9    4.0286   550.7    2.962      39.666
2015    3        1    20  15    4.0278   550.3    2.965      39.622
2015    3        1    20  20    4.0271   549.9    2.969      39.578
2015    3        1    20  26    4.0263   549.5    2.973      39.535
2015    3        1    20  31    4.0256   549.2    2.977      39.492
2015    3        1    20  36    4.0249   548.8    2.980      39.449
2015    3        1    20  42    4.0242   548.4    2.984      39.405
2015    3        1    20  47    4.0235   548.0    2.988      39.362
2015    3        1    20  52    4.0228   547.6    2.992      39.319
2015    3        1    20  58    4.0222   547.3    2.995      39.276
2015    3        1    21   3    4.0215   546.9    2.999      39.233
2015    3        1    21   9    4.0209   546.5    3.003      39.190
2015    3        1    21  14    4.0202   546.1    3.007      39.146
2015    3        1    21  19    4.0196   545.7    3.011      39.103
2015    3        1    21  25    4.0190   545.4    3.014      39.060
2015    3        1    21  30    4.0186   545.0    3.018      39.016
2015    3        1    21  35    4.0179   544.6    3.022      38.973
2015    3        1    21  41    4.0174   544.2    3.026      38.929
2015    3        1    21  46    4.0169   543.8    3.029      38.886
2015    3        1    21  52    4.0165   543.4    3.033      38.842
2015    3        1    21  57    4.0160   543.1    3.037      38.798
2015    3        1    22   2    4.0156   542.7    3.041      38.755
2015    3        1    22   8    4.0152   542.3    3.044      38.711
2015    3        1    22  13    4.0148   541.9    3.048      38.667
2015    3        1    22  18    4.0144   541.5    3.052      38.623
2015    3        1    22  24    4.0141   541.2    3.056      38.579
2015    3        1    22  29    4.0138   540.8    3.059      38.534
2015    3        1    22  35    4.0135   540.4    3.063      38.490
2015    3        1    22  40    4.0133   540.0    3.067      38.445
2015    3        1    22  45    4.0131   539.7    3.071      38.400
2015    3        1    22  51    4.0127   539.3    3.074      38.354
2015    3        1    22  56    4.0125   538.9    3.078      38.308
2015    3        1    23   1    4.0123   538.5    3.082      38.262
2015    3        1    23   7    4.0121   538.2    3.086      38.216
2015    3        1    23  12    4.0119   537.8    3.089      38.169
2015    3        1    23  18    4.0118   537.4    3.093      38.121
2015    3        1    23  23    4.0116   537.0    3.097      38.073
2015    3        1    23  28    4.0114   536.7    3.100      38.025
2015    3        1    23  34    4.0113   536.3    3.104      37.976
2015    3        1    23  39    4.0111   535.9    3.107      37.927
2015    3        1    23  44    4.0110   535.5    3.111      37.878
2015    3        1    23  50    4.0109   535.2    3.114      37.828
2015    3        1    23  55    4.0108   534.8    3.118      37.777
2015    3        2     0   1    4.0107   534.4    3.122      37.727
2015    3        2     0   6    4.0107   534.0    3.125      37.676
2015    3        2     0  11    4.0105   533.6    3.129      37.625
2015    3        2     0  17    4.0105   533.3    3.132      37.574
2015    3        2     0  22    4.0105   532.9    3.136      37.523
2015    3        2     0  27    4.0104   532.5    3.139      37.471
2015    3        2     0  33    4.0106   532.1    3.143      37.420
2015    3        2     0  38    4.0105   531.7    3.146      37.369
2015    3        2     0  44    4.0107   531.4    3.150      37.318
2015    3        2     0  49    4.0106   531.0    3.153      37.267
2015    3        2     0  54    4.0107   530.6    3.157      37.216
2015    3        2     1   0    4.0109   530.2    3.161      37.165
2015    3        2     1   5    4.0111   529.9    3.164      37.114
2015    3        2     1  11    4.0112   529.5    3.168      37.064
2015    3        2     1  16    4.0115   529.1    3.172      37.014
2015    3        2     1  21    4.0117   528.7    3.176      36.964
2015    3        2     1  27    4.0120   528.3    3.180      36.914
2015    3        2     1  32    4.0123   528.0    3.183      36.865
2015    3        2     1  37    4.0126   527.6    3.187      36.816
2015    3        2     1  43    4.0130   527.2    3.192      36.767
2015    3        2     1  48    4.0134   526.9    3.196      36.718
2015    3        2     1  54    4.0138   526.5    3.200      36.670
2015    3        2     1  59    4.0142   526.1    3.204      36.623
2015    3        2     2   4    4.0147   525.7    3.208      36.575
2015    3        2     2  10    4.0152   525.4    3.213      36.528
