year    month   day   hour  minute  B_enl V_enl   n_enl       T_enl
[year] [month] [day] [hour][minute] [nT]  [km/s]  [cm-3]      [kK]
2015    3       28     0   5    3.7093   555.8    3.445      49.149
2015    3       28     0  11    3.7065   555.6    3.445      49.091
2015    3       28     0  17    3.7038   555.4    3.444      49.033
2015    3       28     0  23    3.7011   555.1    3.443      48.974
2015    3       28     0  29    3.6984   554.9    3.443      48.916
2015    3       28     0  35    3.6957   554.7    3.442      48.858
2015    3       28     0  41    3.6930   554.4    3.442      48.799
2015    3       28     0  47    3.6903   554.2    3.441      48.740
2015    3       28     0  53    3.6876   553.9    3.441      48.681
2015    3       28     0  58    3.6849   553.7    3.440      48.621
2015    3       28     1   4    3.6822   553.4    3.440      48.561
2015    3       28     1  10    3.6795   553.2    3.439      48.500
2015    3       28     1  16    3.6768   552.9    3.439      48.440
2015    3       28     1  22    3.6741   552.7    3.439      48.380
2015    3       28     1  28    3.6714   552.4    3.438      48.320
2015    3       28     1  34    3.6688   552.1    3.438      48.259
2015    3       28     1  40    3.6661   551.9    3.438      48.199
2015    3       28     1  46    3.6635   551.6    3.437      48.139
2015    3       28     1  52    3.6609   551.4    3.437      48.079
2015    3       28     1  57    3.6583   551.1    3.437      48.019
2015    3       28     2   3    3.6557   550.8    3.437      47.959
2015    3       28     2   9    3.6531   550.6    3.437      47.899
2015    3       28     2  15    3.6506   550.3    3.436      47.840
2015    3       28     2  21    3.6480   550.0    3.436      47.780
2015    3       28     2  27    3.6455   549.8    3.436      47.721
2015    3       28     2  33    3.6430   549.5    3.437      47.661
2015    3       28     2  39    3.6405   549.3    3.437      47.602
2015    3       28     2  45    3.6380   549.0    3.437      47.544
2015    3       28     2  51    3.6355   548.7    3.437      47.485
2015    3       28     2  56    3.6331   548.5    3.437      47.426
2015    3       28     3   2    3.6306   548.2    3.438      47.367
2015    3       28     3   8    3.6282   547.9    3.438      47.308
2015    3       28     3  14    3.6258   547.7    3.438      47.249
2015    3       28     3  20    3.6233   547.4    3.439      47.191
2015    3       28     3  26    3.6209   547.1    3.439      47.132
2015    3       28     3  32    3.6185   546.8    3.439      47.072
2015    3       28     3  38    3.6161   546.6    3.440      47.012
2015    3       28     3  44    3.6138   546.3    3.440      46.952
2015    3       28     3  50    3.6114   546.0    3.440      46.891
2015    3       28     3  55    3.6090   545.8    3.441      46.830
2015    3       28     4   1    3.6066   545.5    3.441      46.768
2015    3       28     4   7    3.6042   545.2    3.441      46.706
2015    3       28     4  13    3.6018   545.0    3.441      46.643
2015    3       28     4  19    3.5994   544.7    3.441      46.580
2015    3       28     4  25    3.5970   544.4    3.441      46.517
2015    3       28     4  31    3.5945   544.2    3.440      46.453
2015    3       28     4  37    3.5921   543.9    3.440      46.389
2015    3       28     4  43    3.5897   543.6    3.440      46.325
2015    3       28     4  48    3.5873   543.4    3.439      46.260
2015    3       28     4  54    3.5849   543.1    3.439      46.194
2015    3       28     5   0    3.5825   542.8    3.439      46.129
2015    3       28     5   6    3.5801   542.6    3.438      46.063
2015    3       28     5  12    3.5776   542.3    3.438      45.997
2015    3       28     5  18    3.5752   542.0    3.437      45.930
2015    3       28     5  24    3.5728   541.8    3.436      45.863
2015    3       28     5  30    3.5704   541.5    3.436      45.796
2015    3       28     5  36    3.5680   541.2    3.435      45.729
2015    3       28     5  42    3.5656   541.0    3.434      45.661
2015    3       28     5  47    3.5632   540.7    3.434      45.593
2015    3       28     5  53    3.5608   540.4    3.433      45.525
2015    3       28     5  59    3.5584   540.2    3.432      45.456
2015    3       28     6   5    3.5561   539.9    3.431      45.388
2015    3       28     6  11    3.5537   539.6    3.430      45.319
2015    3       28     6  17    3.5513   539.3    3.429      45.249
2015    3       28     6  23    3.5490   539.1    3.428      45.180
2015    3       28     6  29    3.5466   538.8    3.428      45.111
2015    3       28     6  35    3.5443   538.5    3.427      45.041
2015    3       28     6  41    3.5419   538.2    3.426      44.972
2015    3       28     6  46    3.5396   538.0    3.425      44.902
2015    3       28     6  52    3.5373   537.7    3.424      44.832
2015    3       28     6  58    3.5350   537.4    3.423      44.762
2015    3       28     7   4    3.5327   537.1    3.422      44.693
2015    3       28     7  10    3.5304   536.8    3.421      44.623
2015    3       28     7  16    3.5281   536.6    3.420      44.553
2015    3       28     7  22    3.5258   536.3    3.419      44.483
2015    3       28     7  28    3.5235   536.0    3.418      44.414
2015    3       28     7  34    3.5213   535.7    3.417      44.344
2015    3       28     7  40    3.5190   535.4    3.416      44.274
2015    3       28     7  45    3.5168   535.1    3.416      44.205
2015    3       28     7  51    3.5146   534.9    3.415      44.135
2015    3       28     7  57    3.5123   534.6    3.414      44.066
2015    3       28     8   3    3.5101   534.3    3.413      43.996
2015    3       28     8   9    3.5079   534.0    3.412      43.927
2015    3       28     8  15    3.5057   533.7    3.411      43.858
2015    3       28     8  21    3.5036   533.4    3.411      43.789
2015    3       28     8  27    3.5014   533.1    3.410      43.720
2015    3       28     8  33    3.4992   532.8    3.409      43.652
2015    3       28     8  39    3.4971   532.5    3.409      43.583
2015    3       28     8  44    3.4949   532.2    3.408      43.515
2015    3       28     8  50    3.4928   531.9    3.407      43.448
2015    3       28     8  56    3.4907   531.6    3.407      43.380
2015    3       28     9   2    3.4886   531.3    3.406      43.313
2015    3       28     9   8    3.4866   531.0    3.406      43.247
2015    3       28     9  14    3.4845   530.7    3.406      43.181
2015    3       28     9  20    3.4825   530.4    3.405      43.115
2015    3       28     9  26    3.4805   530.1    3.405      43.050
2015    3       28     9  32    3.4785   529.8    3.405      42.985
2015    3       28     9  38    3.4765   529.5    3.405      42.921
2015    3       28     9  43    3.4745   529.2    3.405      42.858
2015    3       28     9  49    3.4726   528.9    3.405      42.795
2015    3       28     9  55    3.4707   528.5    3.405      42.733
2015    3       28    10   1    3.4688   528.2    3.405      42.671
2015    3       28    10   7    3.4669   527.9    3.406      42.610
2015    3       28    10  13    3.4650   527.6    3.406      42.549
2015    3       28    10  19    3.4631   527.3    3.406      42.488
2015    3       28    10  25    3.4613   527.0    3.407      42.428
2015    3       28    10  31    3.4595   526.7    3.408      42.368
2015    3       28    10  37    3.4576   526.4    3.408      42.308
2015    3       28    10  42    3.4558   526.1    3.409      42.249
2015    3       28    10  48    3.4540   525.8    3.410      42.190
2015    3       28    10  54    3.4522   525.4    3.410      42.130
2015    3       28    11   0    3.4504   525.1    3.411      42.071
2015    3       28    11   6    3.4486   524.8    3.412      42.012
2015    3       28    11  12    3.4468   524.5    3.413      41.952
2015    3       28    11  18    3.4450   524.2    3.414      41.892
2015    3       28    11  24    3.4432   523.9    3.415      41.832
2015    3       28    11  30    3.4414   523.5    3.415      41.773
2015    3       28    11  35    3.4396   523.2    3.416      41.713
2015    3       28    11  41    3.4378   522.9    3.417      41.654
2015    3       28    11  47    3.4360   522.6    3.418      41.594
2015    3       28    11  53    3.4343   522.3    3.419      41.535
2015    3       28    11  59    3.4325   521.9    3.420      41.476
2015    3       28    12   5    3.4307   521.6    3.421      41.417
2015    3       28    12  11    3.4290   521.3    3.422      41.358
2015    3       28    12  17    3.4272   521.0    3.424      41.299
2015    3       28    12  23    3.4255   520.7    3.425      41.241
2015    3       28    12  29    3.4238   520.3    3.426      41.182
2015    3       28    12  34    3.4221   520.0    3.427      41.124
2015    3       28    12  40    3.4204   519.7    3.429      41.066
2015    3       28    12  46    3.4187   519.4    3.430      41.008
2015    3       28    12  52    3.4170   519.0    3.431      40.950
2015    3       28    12  58    3.4154   518.7    3.433      40.892
2015    3       28    13   4    3.4137   518.4    3.434      40.835
2015    3       28    13  10    3.4121   518.1    3.436      40.777
2015    3       28    13  16    3.4104   517.7    3.437      40.719
2015    3       28    13  22    3.4088   517.4    3.439      40.662
2015    3       28    13  28    3.4072   517.1    3.440      40.604
2015    3       28    13  33    3.4056   516.7    3.442      40.546
2015    3       28    13  39    3.4040   516.4    3.443      40.489
2015    3       28    13  45    3.4024   516.1    3.445      40.431
2015    3       28    13  51    3.4007   515.8    3.446      40.373
2015    3       28    13  57    3.3992   515.4    3.448      40.315
2015    3       28    14   3    3.3976   515.1    3.449      40.256
2015    3       28    14   9    3.3960   514.8    3.451      40.198
2015    3       28    14  15    3.3944   514.4    3.452      40.140
2015    3       28    14  21    3.3928   514.1    3.454      40.081
2015    3       28    14  27    3.3912   513.7    3.455      40.022
2015    3       28    14  32    3.3897   513.4    3.456      39.964
2015    3       28    14  38    3.3881   513.1    3.458      39.905
2015    3       28    14  44    3.3866   512.7    3.459      39.846
2015    3       28    14  50    3.3851   512.4    3.460      39.787
2015    3       28    14  56    3.3835   512.1    3.462      39.728
2015    3       28    15   2    3.3820   511.7    3.463      39.669
2015    3       28    15   8    3.3805   511.4    3.464      39.609
2015    3       28    15  14    3.3790   511.0    3.466      39.550
2015    3       28    15  20    3.3776   510.7    3.467      39.491
2015    3       28    15  26    3.3761   510.4    3.468      39.432
2015    3       28    15  31    3.3747   510.0    3.470      39.373
2015    3       28    15  37    3.3732   509.7    3.471      39.315
2015    3       28    15  43    3.3718   509.3    3.472      39.256
2015    3       28    15  49    3.3704   509.0    3.473      39.197
2015    3       28    15  55    3.3690   508.6    3.475      39.138
2015    3       28    16   1    3.3676   508.3    3.476      39.079
2015    3       28    16   7    3.3662   508.0    3.477      39.020
2015    3       28    16  13    3.3648   507.6    3.478      38.961
2015    3       28    16  19    3.3634   507.3    3.480      38.902
2015    3       28    16  25    3.3620   506.9    3.481      38.842
2015    3       28    16  30    3.3606   506.6    3.482      38.783
2015    3       28    16  36    3.3592   506.3    3.483      38.722
2015    3       28    16  42    3.3578   505.9    3.484      38.661
2015    3       28    16  48    3.3563   505.6    3.486      38.600
2015    3       28    16  54    3.3549   505.2    3.487      38.539
2015    3       28    17   0    3.3535   504.9    3.488      38.477
2015    3       28    17   6    3.3521   504.5    3.489      38.415
2015    3       28    17  12    3.3507   504.2    3.490      38.352
2015    3       28    17  18    3.3493   503.8    3.491      38.290
2015    3       28    17  23    3.3480   503.5    3.492      38.227
2015    3       28    17  29    3.3466   503.1    3.493      38.165
2015    3       28    17  35    3.3452   502.7    3.494      38.102
2015    3       28    17  41    3.3439   502.4    3.495      38.040
2015    3       28    17  47    3.3425   502.0    3.496      37.977
2015    3       28    17  53    3.3412   501.7    3.498      37.915
2015    3       28    17  59    3.3399   501.3    3.499      37.853
2015    3       28    18   5    3.3386   500.9    3.500      37.791
2015    3       28    18  11    3.3373   500.6    3.501      37.728
2015    3       28    18  17    3.3361   500.2    3.502      37.667
2015    3       28    18  22    3.3348   499.8    3.503      37.605
2015    3       28    18  28    3.3336   499.5    3.505      37.544
2015    3       28    18  34    3.3324   499.1    3.506      37.483
2015    3       28    18  40    3.3312   498.7    3.508      37.422
2015    3       28    18  46    3.3300   498.4    3.509      37.362
2015    3       28    18  52    3.3289   498.0    3.511      37.302
2015    3       28    18  58    3.3278   497.6    3.512      37.243
2015    3       28    19   4    3.3267   497.2    3.514      37.184
2015    3       28    19  10    3.3257   496.8    3.516      37.126
2015    3       28    19  16    3.3247   496.5    3.518      37.069
2015    3       28    19  21    3.3237   496.1    3.520      37.012
2015    3       28    19  27    3.3227   495.7    3.523      36.955
2015    3       28    19  33    3.3218   495.3    3.525      36.900
2015    3       28    19  39    3.3209   494.9    3.528      36.845
2015    3       28    19  45    3.3201   494.5    3.530      36.790
2015    3       28    19  51    3.3193   494.2    3.533      36.737
2015    3       28    19  57    3.3185   493.8    3.536      36.684
2015    3       28    20   3    3.3178   493.4    3.539      36.632
2015    3       28    20   9    3.3171   493.0    3.542      36.580
2015    3       28    20  15    3.3164   492.6    3.545      36.530
2015    3       28    20  20    3.3158   492.2    3.549      36.480
2015    3       28    20  26    3.3152   491.8    3.553      36.430
2015    3       28    20  32    3.3146   491.4    3.556      36.381
2015    3       28    20  38    3.3141   491.0    3.560      36.333
2015    3       28    20  44    3.3136   490.7    3.564      36.285
2015    3       28    20  50    3.3132   490.3    3.568      36.238
2015    3       28    20  56    3.3127   489.9    3.572      36.192
2015    3       28    21   2    3.3123   489.5    3.577      36.145
2015    3       28    21   8    3.3119   489.1    3.581      36.100
2015    3       28    21  14    3.3116   488.7    3.586      36.054
2015    3       28    21  19    3.3113   488.3    3.590      36.010
2015    3       28    21  25    3.3110   487.9    3.595      35.965
2015    3       28    21  31    3.3108   487.5    3.600      35.921
2015    3       28    21  37    3.3105   487.1    3.605      35.877
2015    3       28    21  43    3.3103   486.7    3.610      35.833
2015    3       28    21  49    3.3102   486.3    3.615      35.790
2015    3       28    21  55    3.3100   485.9    3.620      35.747
2015    3       28    22   1    3.3099   485.5    3.625      35.704
2015    3       28    22   7    3.3098   485.1    3.630      35.662
2015    3       28    22  13    3.3098   484.7    3.636      35.620
2015    3       28    22  18    3.3098   484.3    3.641      35.578
2015    3       28    22  24    3.3098   483.9    3.647      35.536
2015    3       28    22  30    3.3098   483.5    3.652      35.495
2015    3       28    22  36    3.3099   483.1    3.658      35.454
2015    3       28    22  42    3.3100   482.7    3.663      35.414
2015    3       28    22  48    3.3101   482.3    3.669      35.373
2015    3       28    22  54    3.3103   481.9    3.675      35.334
2015    3       28    23   0    3.3104   481.5    3.681      35.294
2015    3       28    23   6    3.3107   481.1    3.687      35.254
2015    3       28    23  12    3.3109   480.7    3.693      35.215
2015    3       28    23  17    3.3112   480.3    3.699      35.175
2015    3       28    23  23    3.3114   479.9    3.705      35.136
2015    3       28    23  29    3.3117   479.5    3.711      35.096
2015    3       28    23  35    3.3120   479.1    3.717      35.057
2015    3       28    23  41    3.3123   478.7    3.724      35.018
2015    3       28    23  47    3.3127   478.4    3.730      34.978
2015    3       28    23  53    3.3130   478.0    3.736      34.937
2015    3       28    23  59    3.3134   477.6    3.742      34.897
2015    3       29     0   5    3.3138   477.2    3.749      34.856
2015    3       29     0  10    3.3142   476.8    3.755      34.815
2015    3       29     0  16    3.3147   476.4    3.761      34.774
2015    3       29     0  22    3.3152   476.0    3.768      34.732
2015    3       29     0  28    3.3157   475.6    3.774      34.691
2015    3       29     0  34    3.3162   475.2    3.780      34.650
2015    3       29     0  40    3.3168   474.8    3.787      34.608
2015    3       29     0  46    3.3174   474.4    3.793      34.567
2015    3       29     0  52    3.3180   474.0    3.800      34.526
2015    3       29     0  58    3.3187   473.6    3.806      34.484
2015    3       29     1   4    3.3194   473.3    3.813      34.443
2015    3       29     1   9    3.3202   472.9    3.819      34.402
2015    3       29     1  15    3.3209   472.5    3.826      34.361
2015    3       29     1  21    3.3218   472.1    3.833      34.321
2015    3       29     1  27    3.3226   471.7    3.839      34.280
2015    3       29     1  33    3.3236   471.3    3.846      34.240
2015    3       29     1  39    3.3245   470.9    3.853      34.199
2015    3       29     1  45    3.3255   470.5    3.860      34.159
2015    3       29     1  51    3.3265   470.1    3.866      34.119
2015    3       29     1  57    3.3276   469.8    3.873      34.080
2015    3       29     2   3    3.3287   469.4    3.880      34.040
2015    3       29     2   8    3.3298   469.0    3.887      34.001
2015    3       29     2  14    3.3310   468.6    3.894      33.962
2015    3       29     2  20    3.3322   468.2    3.902      33.923
2015    3       29     2  26    3.3335   467.8    3.909      33.885
2015    3       29     2  32    3.3348   467.4    3.916      33.847
2015    3       29     2  38    3.3361   467.1    3.924      33.809
2015    3       29     2  44    3.3375   466.7    3.931      33.772
2015    3       29     2  50    3.3389   466.3    3.939      33.734
2015    3       29     2  56    3.3404   465.9    3.946      33.698
2015    3       29     3   2    3.3419   465.5    3.954      33.662
2015    3       29     3   7    3.3434   465.1    3.962      33.626
2015    3       29     3  13    3.3450   464.8    3.970      33.590
2015    3       29     3  19    3.3466   464.4    3.978      33.556
2015    3       29     3  25    3.3483   464.0    3.986      33.521
2015    3       29     3  31    3.3500   463.6    3.994      33.487
2015    3       29     3  37    3.3517   463.3    4.002      33.453
2015    3       29     3  43    3.3535   462.9    4.010      33.420
2015    3       29     3  49    3.3553   462.5    4.019      33.388
2015    3       29     3  55    3.3572   462.1    4.028      33.356
2015    3       29     4   1    3.3591   461.8    4.036      33.324
2015    3       29     4   6    3.3611   461.4    4.045      33.293
2015    3       29     4  12    3.3630   461.0    4.054      33.262
2015    3       29     4  18    3.3651   460.7    4.063      33.232
2015    3       29     4  24    3.3671   460.3    4.072      33.202
2015    3       29     4  30    3.3693   459.9    4.081      33.172
2015    3       29     4  36    3.3714   459.6    4.091      33.144
2015    3       29     4  42    3.3736   459.2    4.100      33.115
