year    month   day   hour  minute  B_enl V_enl   n_enl       T_enl
[year] [month] [day] [hour][minute] [nT]  [km/s]  [cm-3]      [kK]
2015    3       28     0   0    3.6738   571.4    3.220      50.517
2015    3       28     0   6    3.6704   571.1    3.220      50.442
2015    3       28     0  12    3.6671   570.9    3.219      50.368
2015    3       28     0  18    3.6637   570.6    3.219      50.294
2015    3       28     0  23    3.6605   570.3    3.218      50.219
2015    3       28     0  29    3.6572   570.0    3.218      50.145
2015    3       28     0  35    3.6539   569.7    3.217      50.071
2015    3       28     0  41    3.6507   569.5    3.217      49.997
2015    3       28     0  47    3.6475   569.2    3.216      49.923
2015    3       28     0  53    3.6443   568.9    3.216      49.849
2015    3       28     0  59    3.6412   568.6    3.216      49.775
2015    3       28     1   5    3.6381   568.3    3.215      49.701
2015    3       28     1  11    3.6350   568.0    3.215      49.628
2015    3       28     1  16    3.6319   567.7    3.215      49.555
2015    3       28     1  22    3.6288   567.4    3.215      49.482
2015    3       28     1  28    3.6258   567.1    3.214      49.410
2015    3       28     1  34    3.6228   566.8    3.214      49.338
2015    3       28     1  40    3.6198   566.5    3.214      49.267
2015    3       28     1  46    3.6168   566.2    3.214      49.195
2015    3       28     1  52    3.6138   565.9    3.214      49.125
2015    3       28     1  58    3.6108   565.6    3.215      49.054
2015    3       28     2   4    3.6079   565.3    3.215      48.984
2015    3       28     2   9    3.6050   565.0    3.215      48.914
2015    3       28     2  15    3.6021   564.7    3.215      48.845
2015    3       28     2  21    3.5992   564.4    3.216      48.776
2015    3       28     2  27    3.5963   564.1    3.216      48.706
2015    3       28     2  33    3.5934   563.8    3.216      48.637
2015    3       28     2  39    3.5905   563.5    3.216      48.568
2015    3       28     2  45    3.5877   563.2    3.217      48.498
2015    3       28     2  51    3.5848   562.9    3.217      48.428
2015    3       28     2  57    3.5820   562.6    3.217      48.357
2015    3       28     3   2    3.5791   562.3    3.217      48.285
2015    3       28     3   8    3.5763   562.0    3.217      48.214
2015    3       28     3  14    3.5734   561.7    3.217      48.141
2015    3       28     3  20    3.5705   561.4    3.217      48.068
2015    3       28     3  26    3.5676   561.1    3.217      47.994
2015    3       28     3  32    3.5648   560.9    3.217      47.920
2015    3       28     3  38    3.5619   560.6    3.216      47.845
2015    3       28     3  44    3.5590   560.3    3.216      47.770
2015    3       28     3  50    3.5561   560.0    3.216      47.695
2015    3       28     3  55    3.5533   559.7    3.215      47.619
2015    3       28     4   1    3.5504   559.4    3.215      47.542
2015    3       28     4   7    3.5475   559.1    3.214      47.466
2015    3       28     4  13    3.5446   558.8    3.214      47.389
2015    3       28     4  19    3.5418   558.5    3.213      47.311
2015    3       28     4  25    3.5389   558.2    3.212      47.234
2015    3       28     4  31    3.5361   557.9    3.211      47.156
2015    3       28     4  37    3.5332   557.7    3.211      47.077
2015    3       28     4  43    3.5304   557.4    3.210      46.999
2015    3       28     4  48    3.5276   557.1    3.209      46.920
2015    3       28     4  54    3.5247   556.8    3.208      46.840
2015    3       28     5   0    3.5219   556.5    3.207      46.761
2015    3       28     5   6    3.5191   556.2    3.206      46.681
2015    3       28     5  12    3.5163   555.9    3.205      46.601
2015    3       28     5  18    3.5135   555.6    3.204      46.521
2015    3       28     5  24    3.5107   555.3    3.203      46.440
2015    3       28     5  30    3.5079   555.0    3.202      46.359
2015    3       28     5  36    3.5051   554.7    3.201      46.278
2015    3       28     5  41    3.5024   554.4    3.200      46.197
2015    3       28     5  47    3.4996   554.1    3.199      46.115
2015    3       28     5  53    3.4969   553.8    3.198      46.033
2015    3       28     5  59    3.4942   553.5    3.196      45.951
2015    3       28     6   5    3.4915   553.2    3.195      45.869
2015    3       28     6  11    3.4888   552.9    3.194      45.786
2015    3       28     6  17    3.4861   552.6    3.193      45.704
2015    3       28     6  23    3.4834   552.3    3.192      45.622
2015    3       28     6  29    3.4807   552.0    3.191      45.539
2015    3       28     6  34    3.4781   551.7    3.190      45.457
2015    3       28     6  40    3.4754   551.4    3.189      45.374
2015    3       28     6  46    3.4728   551.1    3.188      45.292
2015    3       28     6  52    3.4702   550.8    3.187      45.209
2015    3       28     6  58    3.4676   550.5    3.186      45.127
2015    3       28     7   4    3.4650   550.1    3.185      45.045
2015    3       28     7  10    3.4624   549.8    3.184      44.963
2015    3       28     7  16    3.4599   549.5    3.183      44.881
2015    3       28     7  22    3.4573   549.2    3.182      44.799
2015    3       28     7  27    3.4548   548.9    3.181      44.718
2015    3       28     7  33    3.4523   548.6    3.180      44.636
2015    3       28     7  39    3.4498   548.2    3.179      44.556
2015    3       28     7  45    3.4473   547.9    3.179      44.475
2015    3       28     7  51    3.4448   547.6    3.178      44.394
2015    3       28     7  57    3.4424   547.3    3.177      44.314
2015    3       28     8   3    3.4400   546.9    3.177      44.235
2015    3       28     8   9    3.4375   546.6    3.176      44.156
2015    3       28     8  15    3.4352   546.3    3.176      44.077
2015    3       28     8  20    3.4328   545.9    3.175      43.999
2015    3       28     8  26    3.4304   545.6    3.175      43.922
2015    3       28     8  32    3.4281   545.3    3.174      43.845
2015    3       28     8  38    3.4258   544.9    3.174      43.769
2015    3       28     8  44    3.4235   544.6    3.174      43.694
2015    3       28     8  50    3.4213   544.3    3.174      43.620
2015    3       28     8  56    3.4190   543.9    3.174      43.546
2015    3       28     9   2    3.4168   543.6    3.174      43.474
2015    3       28     9   8    3.4146   543.3    3.174      43.402
2015    3       28     9  13    3.4125   542.9    3.174      43.331
2015    3       28     9  19    3.4103   542.6    3.175      43.261
2015    3       28     9  25    3.4082   542.2    3.175      43.192
2015    3       28     9  31    3.4061   541.9    3.175      43.123
2015    3       28     9  37    3.4040   541.6    3.176      43.056
2015    3       28     9  43    3.4020   541.2    3.176      42.989
2015    3       28     9  49    3.3999   540.9    3.177      42.922
2015    3       28     9  55    3.3979   540.5    3.178      42.855
2015    3       28    10   1    3.3959   540.2    3.179      42.789
2015    3       28    10   6    3.3939   539.9    3.179      42.723
2015    3       28    10  12    3.3919   539.5    3.180      42.656
2015    3       28    10  18    3.3899   539.2    3.181      42.589
2015    3       28    10  24    3.3879   538.8    3.181      42.522
2015    3       28    10  30    3.3859   538.5    3.182      42.455
2015    3       28    10  36    3.3839   538.1    3.183      42.388
2015    3       28    10  42    3.3819   537.8    3.184      42.320
2015    3       28    10  48    3.3799   537.5    3.184      42.253
2015    3       28    10  54    3.3779   537.1    3.185      42.186
2015    3       28    10  59    3.3760   536.8    3.186      42.118
2015    3       28    11   5    3.3740   536.4    3.187      42.051
2015    3       28    11  11    3.3720   536.1    3.187      41.984
2015    3       28    11  17    3.3701   535.7    3.188      41.917
2015    3       28    11  23    3.3681   535.4    3.189      41.850
2015    3       28    11  29    3.3662   535.0    3.190      41.783
2015    3       28    11  35    3.3643   534.7    3.191      41.717
2015    3       28    11  41    3.3624   534.3    3.192      41.650
2015    3       28    11  47    3.3605   534.0    3.193      41.584
2015    3       28    11  52    3.3586   533.6    3.194      41.518
2015    3       28    11  58    3.3567   533.3    3.196      41.452
2015    3       28    12   4    3.3549   532.9    3.197      41.386
2015    3       28    12  10    3.3531   532.6    3.198      41.321
2015    3       28    12  16    3.3512   532.2    3.199      41.256
2015    3       28    12  22    3.3494   531.9    3.200      41.191
2015    3       28    12  28    3.3476   531.5    3.202      41.126
2015    3       28    12  34    3.3458   531.1    3.203      41.060
2015    3       28    12  40    3.3440   530.8    3.204      40.996
2015    3       28    12  45    3.3422   530.4    3.206      40.931
2015    3       28    12  51    3.3404   530.1    3.207      40.866
2015    3       28    12  57    3.3387   529.7    3.208      40.801
2015    3       28    13   3    3.3369   529.4    3.210      40.736
2015    3       28    13   9    3.3351   529.0    3.211      40.672
2015    3       28    13  15    3.3334   528.6    3.212      40.607
2015    3       28    13  21    3.3316   528.3    3.214      40.542
2015    3       28    13  27    3.3299   527.9    3.215      40.477
2015    3       28    13  33    3.3282   527.6    3.216      40.411
2015    3       28    13  38    3.3264   527.2    3.218      40.346
2015    3       28    13  44    3.3247   526.8    3.219      40.281
2015    3       28    13  50    3.3230   526.5    3.220      40.216
2015    3       28    13  56    3.3213   526.1    3.221      40.150
2015    3       28    14   2    3.3196   525.7    3.223      40.085
2015    3       28    14   8    3.3179   525.4    3.224      40.020
2015    3       28    14  14    3.3162   525.0    3.225      39.954
2015    3       28    14  20    3.3145   524.6    3.226      39.889
2015    3       28    14  26    3.3129   524.3    3.228      39.823
2015    3       28    14  31    3.3112   523.9    3.229      39.758
2015    3       28    14  37    3.3096   523.5    3.230      39.693
2015    3       28    14  43    3.3080   523.2    3.231      39.628
2015    3       28    14  49    3.3063   522.8    3.232      39.562
2015    3       28    14  55    3.3047   522.4    3.233      39.497
2015    3       28    15   1    3.3032   522.0    3.235      39.432
2015    3       28    15   7    3.3016   521.7    3.236      39.367
2015    3       28    15  13    3.3000   521.3    3.237      39.301
2015    3       28    15  19    3.2984   520.9    3.238      39.236
2015    3       28    15  24    3.2969   520.6    3.239      39.170
2015    3       28    15  30    3.2953   520.2    3.240      39.104
2015    3       28    15  36    3.2937   519.8    3.241      39.038
2015    3       28    15  42    3.2921   519.5    3.243      38.970
2015    3       28    15  48    3.2906   519.1    3.244      38.903
2015    3       28    15  54    3.2890   518.7    3.245      38.835
2015    3       28    16   0    3.2875   518.3    3.246      38.766
2015    3       28    16   6    3.2859   518.0    3.247      38.697
2015    3       28    16  12    3.2844   517.6    3.248      38.629
2015    3       28    16  17    3.2828   517.2    3.249      38.559
2015    3       28    16  23    3.2813   516.8    3.250      38.490
2015    3       28    16  29    3.2798   516.4    3.251      38.421
2015    3       28    16  35    3.2783   516.1    3.252      38.351
2015    3       28    16  41    3.2768   515.7    3.252      38.282
2015    3       28    16  47    3.2753   515.3    3.253      38.213
2015    3       28    16  53    3.2738   514.9    3.254      38.143
2015    3       28    16  59    3.2724   514.5    3.255      38.074
2015    3       28    17   5    3.2710   514.1    3.256      38.005
2015    3       28    17  10    3.2695   513.7    3.257      37.936
2015    3       28    17  16    3.2681   513.3    3.258      37.867
2015    3       28    17  22    3.2667   513.0    3.259      37.798
2015    3       28    17  28    3.2653   512.6    3.260      37.730
2015    3       28    17  34    3.2640   512.2    3.261      37.661
2015    3       28    17  40    3.2626   511.8    3.262      37.593
2015    3       28    17  46    3.2613   511.4    3.263      37.525
2015    3       28    17  52    3.2600   511.0    3.265      37.458
2015    3       28    17  58    3.2587   510.6    3.266      37.391
2015    3       28    18   3    3.2575   510.2    3.267      37.324
2015    3       28    18   9    3.2563   509.8    3.269      37.258
2015    3       28    18  15    3.2551   509.4    3.270      37.193
2015    3       28    18  21    3.2539   509.0    3.272      37.127
2015    3       28    18  27    3.2527   508.5    3.273      37.063
2015    3       28    18  33    3.2516   508.1    3.275      36.999
2015    3       28    18  39    3.2506   507.7    3.277      36.935
2015    3       28    18  45    3.2495   507.3    3.279      36.873
2015    3       28    18  51    3.2485   506.9    3.281      36.811
2015    3       28    18  56    3.2475   506.5    3.283      36.749
2015    3       28    19   2    3.2465   506.1    3.285      36.689
2015    3       28    19   8    3.2456   505.7    3.287      36.629
2015    3       28    19  14    3.2447   505.2    3.290      36.570
2015    3       28    19  20    3.2439   504.8    3.293      36.512
2015    3       28    19  26    3.2430   504.4    3.295      36.454
2015    3       28    19  32    3.2422   504.0    3.298      36.397
2015    3       28    19  38    3.2415   503.6    3.301      36.341
2015    3       28    19  44    3.2408   503.2    3.304      36.286
2015    3       28    19  49    3.2401   502.7    3.308      36.232
2015    3       28    19  55    3.2395   502.3    3.311      36.178
2015    3       28    20   1    3.2388   501.9    3.315      36.125
2015    3       28    20   7    3.2383   501.5    3.318      36.073
2015    3       28    20  13    3.2377   501.0    3.322      36.021
2015    3       28    20  19    3.2372   500.6    3.326      35.971
2015    3       28    20  25    3.2367   500.2    3.330      35.920
2015    3       28    20  31    3.2363   499.8    3.334      35.871
2015    3       28    20  37    3.2359   499.3    3.338      35.822
2015    3       28    20  42    3.2355   498.9    3.343      35.773
2015    3       28    20  48    3.2351   498.5    3.347      35.725
2015    3       28    20  54    3.2348   498.1    3.351      35.678
2015    3       28    21   0    3.2345   497.6    3.356      35.631
2015    3       28    21   6    3.2342   497.2    3.361      35.584
2015    3       28    21  12    3.2340   496.8    3.366      35.538
2015    3       28    21  18    3.2338   496.3    3.371      35.493
2015    3       28    21  24    3.2336   495.9    3.375      35.447
2015    3       28    21  30    3.2334   495.5    3.381      35.403
2015    3       28    21  35    3.2333   495.0    3.386      35.358
2015    3       28    21  41    3.2332   494.6    3.391      35.314
2015    3       28    21  47    3.2332   494.2    3.396      35.271
2015    3       28    21  53    3.2331   493.7    3.402      35.228
2015    3       28    21  59    3.2332   493.3    3.407      35.185
2015    3       28    22   5    3.2332   492.9    3.412      35.143
2015    3       28    22  11    3.2332   492.5    3.418      35.100
2015    3       28    22  17    3.2333   492.0    3.424      35.058
2015    3       28    22  23    3.2334   491.6    3.429      35.017
2015    3       28    22  28    3.2336   491.2    3.435      34.975
2015    3       28    22  34    3.2337   490.7    3.441      34.934
2015    3       28    22  40    3.2339   490.3    3.447      34.892
2015    3       28    22  46    3.2341   489.9    3.452      34.851
2015    3       28    22  52    3.2343   489.5    3.458      34.809
2015    3       28    22  58    3.2345   489.0    3.464      34.766
2015    3       28    23   4    3.2348   488.6    3.470      34.723
2015    3       28    23  10    3.2351   488.2    3.476      34.680
2015    3       28    23  16    3.2353   487.8    3.482      34.636
2015    3       28    23  21    3.2357   487.4    3.488      34.592
2015    3       28    23  27    3.2360   486.9    3.494      34.548
2015    3       28    23  33    3.2364   486.5    3.500      34.504
2015    3       28    23  39    3.2367   486.1    3.506      34.460
2015    3       28    23  45    3.2372   485.7    3.512      34.416
2015    3       28    23  51    3.2376   485.2    3.518      34.371
2015    3       28    23  57    3.2381   484.8    3.525      34.327
2015    3       29     0   3    3.2386   484.4    3.531      34.283
2015    3       29     0   9    3.2392   484.0    3.537      34.238
2015    3       29     0  15    3.2398   483.5    3.543      34.194
2015    3       29     0  20    3.2404   483.1    3.549      34.150
2015    3       29     0  26    3.2410   482.7    3.556      34.106
2015    3       29     0  32    3.2418   482.3    3.562      34.062
2015    3       29     0  38    3.2425   481.9    3.568      34.019
2015    3       29     0  44    3.2433   481.4    3.575      33.975
2015    3       29     0  50    3.2441   481.0    3.581      33.931
2015    3       29     0  56    3.2449   480.6    3.587      33.888
2015    3       29     1   2    3.2458   480.2    3.594      33.845
2015    3       29     1   7    3.2468   479.8    3.600      33.802
2015    3       29     1  13    3.2477   479.4    3.607      33.760
2015    3       29     1  19    3.2487   479.0    3.614      33.718
2015    3       29     1  25    3.2498   478.5    3.620      33.676
2015    3       29     1  31    3.2509   478.1    3.627      33.634
2015    3       29     1  37    3.2520   477.7    3.634      33.592
2015    3       29     1  43    3.2532   477.3    3.641      33.551
2015    3       29     1  49    3.2544   476.9    3.648      33.510
2015    3       29     1  55    3.2557   476.5    3.655      33.470
2015    3       29     2   1    3.2569   476.1    3.662      33.429
2015    3       29     2   6    3.2583   475.7    3.669      33.390
2015    3       29     2  12    3.2597   475.3    3.677      33.350
2015    3       29     2  18    3.2611   474.8    3.684      33.311
2015    3       29     2  24    3.2625   474.4    3.691      33.272
2015    3       29     2  30    3.2640   474.0    3.699      33.234
2015    3       29     2  36    3.2656   473.6    3.707      33.196
2015    3       29     2  42    3.2672   473.2    3.714      33.159
2015    3       29     2  48    3.2688   472.8    3.722      33.122
2015    3       29     2  53    3.2704   472.4    3.730      33.086
2015    3       29     2  59    3.2721   472.0    3.738      33.050
2015    3       29     3   5    3.2739   471.6    3.746      33.015
2015    3       29     3  11    3.2757   471.2    3.754      32.980
2015    3       29     3  17    3.2775   470.8    3.763      32.946
2015    3       29     3  23    3.2794   470.4    3.771      32.913
2015    3       29     3  29    3.2814   470.0    3.780      32.880
2015    3       29     3  35    3.2833   469.6    3.789      32.847
2015    3       29     3  41    3.2854   469.2    3.798      32.816
2015    3       29     3  46    3.2874   468.8    3.807      32.785
2015    3       29     3  52    3.2895   468.4    3.816      32.754
2015    3       29     3  58    3.2917   468.0    3.825      32.724
2015    3       29     4   4    3.2939   467.7    3.834      32.695
2015    3       29     4  10    3.2961   467.3    3.844      32.666
2015    3       29     4  16    3.2984   466.9    3.854      32.638
2015    3       29     4  22    3.3008   466.5    3.863      32.611
2015    3       29     4  28    3.3032   466.1    3.873      32.584
2015    3       29     4  34    3.3056   465.7    3.884      32.557
