year    month   day   hour  minute  B_enl V_enl   n_enl       T_enl
[year] [month] [day] [hour][minute] [nT]  [km/s]  [cm-3]      [kK]
2015    3        5     0   5    7.1828   474.5    7.111      49.596
2015    3        5     0  10    7.1865   474.7    7.109      49.643
2015    3        5     0  15    7.1902   474.8    7.108      49.690
2015    3        5     0  21    7.1939   475.0    7.107      49.738
2015    3        5     0  26    7.1978   475.2    7.106      49.788
2015    3        5     0  32    7.2015   475.4    7.105      49.838
2015    3        5     0  37    7.2053   475.6    7.105      49.891
2015    3        5     0  42    7.2091   475.7    7.104      49.944
2015    3        5     0  48    7.2130   475.9    7.104      49.999
2015    3        5     0  53    7.2169   476.1    7.104      50.056
2015    3        5     0  58    7.2209   476.3    7.104      50.113
2015    3        5     1   4    7.2246   476.5    7.104      50.173
2015    3        5     1   9    7.2287   476.7    7.105      50.234
2015    3        5     1  14    7.2324   476.9    7.105      50.296
2015    3        5     1  20    7.2362   477.1    7.105      50.359
2015    3        5     1  25    7.2400   477.3    7.105      50.424
2015    3        5     1  31    7.2440   477.5    7.105      50.489
2015    3        5     1  36    7.2475   477.7    7.105      50.555
2015    3        5     1  41    7.2512   477.9    7.105      50.621
2015    3        5     1  47    7.2550   478.1    7.105      50.688
2015    3        5     1  52    7.2586   478.3    7.104      50.754
2015    3        5     1  57    7.2619   478.5    7.103      50.820
2015    3        5     2   3    7.2654   478.7    7.102      50.886
2015    3        5     2   8    7.2688   479.0    7.101      50.951
2015    3        5     2  13    7.2721   479.2    7.100      51.016
2015    3        5     2  19    7.2754   479.4    7.098      51.080
2015    3        5     2  24    7.2786   479.6    7.096      51.143
2015    3        5     2  30    7.2817   479.8    7.094      51.206
2015    3        5     2  35    7.2849   480.1    7.091      51.267
2015    3        5     2  40    7.2879   480.3    7.089      51.328
2015    3        5     2  46    7.2911   480.5    7.086      51.387
2015    3        5     2  51    7.2941   480.7    7.083      51.446
2015    3        5     2  56    7.2970   481.0    7.080      51.504
2015    3        5     3   2    7.2998   481.2    7.076      51.561
2015    3        5     3   7    7.3026   481.4    7.073      51.617
2015    3        5     3  12    7.3054   481.6    7.069      51.673
2015    3        5     3  18    7.3082   481.9    7.065      51.728
2015    3        5     3  23    7.3110   482.1    7.061      51.782
2015    3        5     3  29    7.3137   482.3    7.057      51.836
2015    3        5     3  34    7.3166   482.5    7.053      51.889
2015    3        5     3  39    7.3193   482.8    7.049      51.941
2015    3        5     3  45    7.3218   483.0    7.044      51.993
2015    3        5     3  50    7.3244   483.2    7.040      52.044
2015    3        5     3  55    7.3270   483.5    7.035      52.095
2015    3        5     4   1    7.3296   483.7    7.031      52.145
2015    3        5     4   6    7.3322   483.9    7.026      52.195
2015    3        5     4  11    7.3348   484.2    7.021      52.245
2015    3        5     4  17    7.3373   484.4    7.016      52.294
2015    3        5     4  22    7.3400   484.6    7.012      52.343
2015    3        5     4  27    7.3424   484.9    7.007      52.392
2015    3        5     4  33    7.3449   485.1    7.002      52.441
2015    3        5     4  38    7.3475   485.3    6.997      52.489
2015    3        5     4  44    7.3498   485.6    6.992      52.538
2015    3        5     4  49    7.3523   485.8    6.987      52.586
2015    3        5     4  54    7.3547   486.0    6.982      52.635
2015    3        5     5   0    7.3572   486.3    6.977      52.684
2015    3        5     5   5    7.3595   486.5    6.972      52.733
2015    3        5     5  10    7.3619   486.8    6.966      52.782
2015    3        5     5  16    7.3642   487.0    6.961      52.832
2015    3        5     5  21    7.3665   487.2    6.956      52.881
2015    3        5     5  26    7.3689   487.5    6.951      52.930
2015    3        5     5  32    7.3712   487.7    6.945      52.979
2015    3        5     5  37    7.3733   488.0    6.940      53.027
2015    3        5     5  43    7.3755   488.2    6.934      53.076
2015    3        5     5  48    7.3777   488.5    6.929      53.124
2015    3        5     5  53    7.3799   488.7    6.923      53.173
2015    3        5     5  59    7.3820   489.0    6.918      53.221
2015    3        5     6   4    7.3841   489.2    6.912      53.268
2015    3        5     6   9    7.3862   489.4    6.906      53.315
2015    3        5     6  15    7.3883   489.7    6.901      53.362
2015    3        5     6  20    7.3903   489.9    6.895      53.409
2015    3        5     6  25    7.3924   490.2    6.889      53.455
2015    3        5     6  31    7.3944   490.4    6.883      53.501
2015    3        5     6  36    7.3965   490.7    6.878      53.547
2015    3        5     6  42    7.3986   490.9    6.872      53.593
2015    3        5     6  47    7.4005   491.2    6.866      53.638
2015    3        5     6  52    7.4027   491.4    6.861      53.684
2015    3        5     6  58    7.4046   491.7    6.855      53.730
2015    3        5     7   3    7.4067   491.9    6.850      53.775
2015    3        5     7   8    7.4086   492.1    6.845      53.821
2015    3        5     7  14    7.4107   492.4    6.839      53.867
2015    3        5     7  19    7.4127   492.6    6.834      53.913
2015    3        5     7  24    7.4147   492.9    6.829      53.960
2015    3        5     7  30    7.4168   493.1    6.824      54.007
2015    3        5     7  35    7.4188   493.4    6.819      54.054
2015    3        5     7  41    7.4209   493.6    6.815      54.102
2015    3        5     7  46    7.4230   493.9    6.810      54.152
2015    3        5     7  51    7.4251   494.1    6.805      54.203
2015    3        5     7  57    7.4269   494.4    6.800      54.254
2015    3        5     8   2    7.4288   494.6    6.796      54.306
2015    3        5     8   7    7.4308   494.9    6.791      54.360
2015    3        5     8  13    7.4327   495.2    6.786      54.414
2015    3        5     8  18    7.4347   495.4    6.781      54.469
2015    3        5     8  23    7.4363   495.7    6.776      54.524
2015    3        5     8  29    7.4381   496.0    6.771      54.580
2015    3        5     8  34    7.4398   496.2    6.766      54.636
2015    3        5     8  40    7.4415   496.5    6.761      54.692
2015    3        5     8  45    7.4431   496.8    6.755      54.749
2015    3        5     8  50    7.4446   497.0    6.750      54.805
2015    3        5     8  56    7.4461   497.3    6.744      54.861
2015    3        5     9   1    7.4476   497.6    6.738      54.917
2015    3        5     9   6    7.4490   497.9    6.732      54.973
2015    3        5     9  12    7.4505   498.1    6.726      55.028
2015    3        5     9  17    7.4516   498.4    6.720      55.082
2015    3        5     9  22    7.4529   498.7    6.714      55.136
2015    3        5     9  28    7.4543   498.9    6.707      55.190
2015    3        5     9  33    7.4553   499.2    6.701      55.243
2015    3        5     9  39    7.4565   499.5    6.694      55.296
2015    3        5     9  44    7.4576   499.8    6.687      55.349
2015    3        5     9  49    7.4589   500.0    6.681      55.401
2015    3        5     9  55    7.4597   500.3    6.674      55.452
2015    3        5    10   0    7.4609   500.6    6.667      55.504
2015    3        5    10   5    7.4617   500.9    6.660      55.554
2015    3        5    10  11    7.4627   501.2    6.653      55.605
2015    3        5    10  16    7.4636   501.4    6.646      55.655
2015    3        5    10  21    7.4645   501.7    6.639      55.705
2015    3        5    10  27    7.4653   502.0    6.632      55.754
2015    3        5    10  32    7.4661   502.3    6.625      55.803
2015    3        5    10  38    7.4669   502.5    6.617      55.852
2015    3        5    10  43    7.4676   502.8    6.610      55.901
2015    3        5    10  48    7.4684   503.1    6.603      55.949
2015    3        5    10  54    7.4691   503.4    6.596      55.997
2015    3        5    10  59    7.4697   503.6    6.588      56.044
2015    3        5    11   4    7.4704   503.9    6.581      56.092
2015    3        5    11  10    7.4710   504.2    6.574      56.139
2015    3        5    11  15    7.4718   504.5    6.566      56.186
2015    3        5    11  20    7.4722   504.8    6.559      56.232
2015    3        5    11  26    7.4727   505.0    6.552      56.279
2015    3        5    11  31    7.4733   505.3    6.545      56.325
2015    3        5    11  37    7.4738   505.6    6.538      56.372
2015    3        5    11  42    7.4744   505.9    6.530      56.418
2015    3        5    11  47    7.4749   506.1    6.523      56.464
2015    3        5    11  53    7.4756   506.4    6.516      56.510
2015    3        5    11  58    7.4761   506.7    6.509      56.557
2015    3        5    12   3    7.4766   506.9    6.502      56.603
2015    3        5    12   9    7.4771   507.2    6.495      56.650
2015    3        5    12  14    7.4773   507.5    6.489      56.698
2015    3        5    12  19    7.4777   507.8    6.482      56.746
2015    3        5    12  25    7.4782   508.1    6.475      56.795
2015    3        5    12  30    7.4787   508.3    6.468      56.844
2015    3        5    12  36    7.4789   508.6    6.461      56.893
2015    3        5    12  41    7.4793   508.9    6.454      56.943
2015    3        5    12  46    7.4796   509.2    6.447      56.993
2015    3        5    12  52    7.4798   509.5    6.440      57.043
2015    3        5    12  57    7.4801   509.7    6.433      57.093
2015    3        5    13   2    7.4805   510.0    6.426      57.144
2015    3        5    13   8    7.4805   510.3    6.419      57.195
2015    3        5    13  13    7.4806   510.6    6.412      57.245
2015    3        5    13  18    7.4807   510.9    6.405      57.295
2015    3        5    13  24    7.4808   511.2    6.397      57.345
2015    3        5    13  29    7.4809   511.4    6.390      57.394
2015    3        5    13  34    7.4809   511.7    6.383      57.443
2015    3        5    13  40    7.4809   512.0    6.375      57.492
2015    3        5    13  45    7.4808   512.3    6.368      57.541
2015    3        5    13  51    7.4808   512.6    6.360      57.589
2015    3        5    13  56    7.4807   512.9    6.353      57.638
2015    3        5    14   1    7.4806   513.1    6.345      57.685
2015    3        5    14   7    7.4804   513.4    6.337      57.733
2015    3        5    14  12    7.4803   513.7    6.330      57.780
2015    3        5    14  17    7.4801   514.0    6.322      57.827
2015    3        5    14  23    7.4798   514.3    6.314      57.874
2015    3        5    14  28    7.4796   514.6    6.307      57.920
2015    3        5    14  33    7.4793   514.8    6.299      57.967
2015    3        5    14  39    7.4790   515.1    6.291      58.013
2015    3        5    14  44    7.4787   515.4    6.283      58.059
2015    3        5    14  50    7.4783   515.7    6.276      58.105
2015    3        5    14  55    7.4782   516.0    6.268      58.151
2015    3        5    15   0    7.4775   516.3    6.260      58.196
2015    3        5    15   6    7.4770   516.6    6.252      58.242
2015    3        5    15  11    7.4765   516.9    6.244      58.287
2015    3        5    15  16    7.4760   517.1    6.237      58.333
2015    3        5    15  22    7.4754   517.4    6.229      58.378
2015    3        5    15  27    7.4748   517.7    6.221      58.423
2015    3        5    15  32    7.4742   518.0    6.213      58.468
2015    3        5    15  38    7.4735   518.3    6.205      58.514
2015    3        5    15  43    7.4728   518.6    6.198      58.559
2015    3        5    15  49    7.4721   518.9    6.190      58.604
2015    3        5    15  54    7.4714   519.2    6.182      58.650
2015    3        5    15  59    7.4706   519.5    6.174      58.695
2015    3        5    16   5    7.4698   519.8    6.166      58.740
2015    3        5    16  10    7.4689   520.0    6.159      58.786
2015    3        5    16  15    7.4680   520.3    6.151      58.831
2015    3        5    16  21    7.4674   520.6    6.143      58.877
2015    3        5    16  26    7.4661   520.9    6.135      58.922
2015    3        5    16  31    7.4651   521.2    6.128      58.968
2015    3        5    16  37    7.4641   521.5    6.120      59.013
2015    3        5    16  42    7.4630   521.8    6.112      59.058
2015    3        5    16  48    7.4619   522.1    6.104      59.103
2015    3        5    16  53    7.4611   522.4    6.097      59.148
2015    3        5    16  58    7.4596   522.7    6.089      59.193
2015    3        5    17   4    7.4585   522.9    6.081      59.237
2015    3        5    17   9    7.4572   523.2    6.073      59.281
2015    3        5    17  14    7.4560   523.5    6.065      59.325
2015    3        5    17  20    7.4547   523.8    6.058      59.369
2015    3        5    17  25    7.4534   524.1    6.050      59.412
2015    3        5    17  30    7.4521   524.4    6.042      59.456
2015    3        5    17  36    7.4508   524.7    6.034      59.498
2015    3        5    17  41    7.4494   525.0    6.026      59.541
2015    3        5    17  47    7.4480   525.2    6.018      59.583
2015    3        5    17  52    7.4466   525.5    6.010      59.625
2015    3        5    17  57    7.4452   525.8    6.003      59.667
2015    3        5    18   3    7.4437   526.1    5.995      59.708
2015    3        5    18   8    7.4423   526.4    5.987      59.749
2015    3        5    18  13    7.4408   526.6    5.979      59.791
2015    3        5    18  19    7.4393   526.9    5.971      59.831
2015    3        5    18  24    7.4379   527.2    5.964      59.872
2015    3        5    18  29    7.4364   527.5    5.956      59.912
2015    3        5    18  35    7.4349   527.7    5.948      59.953
2015    3        5    18  40    7.4334   528.0    5.940      59.993
2015    3        5    18  46    7.4320   528.3    5.933      60.033
2015    3        5    18  51    7.4305   528.5    5.925      60.073
2015    3        5    18  56    7.4290   528.8    5.918      60.114
2015    3        5    19   2    7.4276   529.1    5.911      60.154
2015    3        5    19   7    7.4262   529.4    5.903      60.195
2015    3        5    19  12    7.4247   529.6    5.896      60.236
2015    3        5    19  18    7.4233   529.9    5.889      60.277
2015    3        5    19  23    7.4219   530.2    5.882      60.319
2015    3        5    19  28    7.4208   530.4    5.875      60.360
2015    3        5    19  34    7.4192   530.7    5.868      60.403
2015    3        5    19  39    7.4178   531.0    5.862      60.446
2015    3        5    19  45    7.4165   531.2    5.855      60.490
2015    3        5    19  50    7.4152   531.5    5.849      60.534
2015    3        5    19  55    7.4139   531.8    5.843      60.579
2015    3        5    20   1    7.4126   532.0    5.837      60.625
2015    3        5    20   6    7.4113   532.3    5.831      60.673
2015    3        5    20  11    7.4101   532.6    5.826      60.722
2015    3        5    20  17    7.4088   532.8    5.820      60.772
2015    3        5    20  22    7.4074   533.1    5.814      60.824
2015    3        5    20  27    7.4061   533.4    5.809      60.876
2015    3        5    20  33    7.4047   533.7    5.803      60.929
2015    3        5    20  38    7.4036   534.0    5.798      60.983
2015    3        5    20  44    7.4021   534.3    5.792      61.036
2015    3        5    20  49    7.4004   534.5    5.786      61.089
2015    3        5    20  54    7.3991   534.8    5.781      61.142
2015    3        5    21   0    7.3975   535.1    5.775      61.195
2015    3        5    21   5    7.3958   535.4    5.768      61.247
2015    3        5    21  10    7.3939   535.7    5.762      61.298
2015    3        5    21  16    7.3921   536.0    5.755      61.348
2015    3        5    21  21    7.3903   536.3    5.749      61.396
2015    3        5    21  26    7.3885   536.6    5.742      61.443
2015    3        5    21  32    7.3866   536.8    5.735      61.489
2015    3        5    21  37    7.3847   537.1    5.728      61.534
2015    3        5    21  43    7.3827   537.4    5.720      61.578
2015    3        5    21  48    7.3807   537.7    5.713      61.621
2015    3        5    21  53    7.3787   538.0    5.705      61.663
2015    3        5    21  59    7.3767   538.3    5.698      61.705
2015    3        5    22   4    7.3746   538.5    5.690      61.745
2015    3        5    22   9    7.3726   538.8    5.683      61.785
2015    3        5    22  15    7.3705   539.1    5.675      61.824
2015    3        5    22  20    7.3684   539.4    5.667      61.863
2015    3        5    22  25    7.3662   539.7    5.659      61.901
2015    3        5    22  31    7.3641   539.9    5.652      61.939
2015    3        5    22  36    7.3619   540.2    5.644      61.976
2015    3        5    22  42    7.3598   540.5    5.636      62.013
2015    3        5    22  47    7.3576   540.8    5.628      62.049
2015    3        5    22  52    7.3556   541.0    5.620      62.085
2015    3        5    22  58    7.3532   541.3    5.613      62.121
2015    3        5    23   3    7.3510   541.6    5.605      62.156
2015    3        5    23   8    7.3487   541.9    5.597      62.191
2015    3        5    23  14    7.3465   542.1    5.589      62.226
2015    3        5    23  19    7.3442   542.4    5.581      62.260
2015    3        5    23  24    7.3420   542.7    5.574      62.294
2015    3        5    23  30    7.3397   543.0    5.566      62.328
2015    3        5    23  35    7.3374   543.2    5.558      62.362
2015    3        5    23  41    7.3351   543.5    5.551      62.396
2015    3        5    23  46    7.3328   543.8    5.543      62.429
2015    3        5    23  51    7.3305   544.1    5.536      62.463
2015    3        5    23  57    7.3283   544.3    5.528      62.496
2015    3        6     0   2    7.3259   544.6    5.521      62.529
2015    3        6     0   7    7.3236   544.9    5.513      62.562
2015    3        6     0  13    7.3214   545.1    5.506      62.595
2015    3        6     0  18    7.3189   545.4    5.499      62.628
2015    3        6     0  23    7.3167   545.7    5.492      62.661
2015    3        6     0  29    7.3143   545.9    5.485      62.695
2015    3        6     0  34    7.3121   546.2    5.478      62.728
2015    3        6     0  39    7.3098   546.5    5.471      62.762
2015    3        6     0  45    7.3076   546.7    5.465      62.797
2015    3        6     0  50    7.3052   547.0    5.458      62.833
2015    3        6     0  56    7.3030   547.3    5.452      62.869
2015    3        6     1   1    7.3008   547.5    5.445      62.906
2015    3        6     1   6    7.2985   547.8    5.439      62.944
2015    3        6     1  12    7.2964   548.1    5.433      62.982
2015    3        6     1  17    7.2942   548.3    5.427      63.022
2015    3        6     1  22    7.2920   548.6    5.421      63.062
2015    3        6     1  28    7.2899   548.8    5.416      63.102
2015    3        6     1  33    7.2878   549.1    5.410      63.144
2015    3        6     1  38    7.2857   549.4    5.405      63.187
2015    3        6     1  44    7.2837   549.6    5.399      63.232
2015    3        6     1  49    7.2816   549.9    5.394      63.278
2015    3        6     1  55    7.2796   550.2    5.389      63.325
2015    3        6     2   0    7.2776   550.4    5.384      63.372
2015    3        6     2   5    7.2756   550.7    5.378      63.420
