year    month   day   hour  minute  B_enl V_enl   n_enl       T_enl
[year] [month] [day] [hour][minute] [nT]  [km/s]  [cm-3]      [kK]
2015    3        3     0   5    5.0630   477.4    5.166      34.541
2015    3        3     0  10    5.0669   477.3    5.173      34.536
2015    3        3     0  15    5.0708   477.2    5.181      34.531
2015    3        3     0  20    5.0748   477.1    5.189      34.527
2015    3        3     0  26    5.0787   477.0    5.197      34.522
2015    3        3     0  31    5.0827   476.9    5.204      34.518
2015    3        3     0  36    5.0866   476.8    5.212      34.515
2015    3        3     0  42    5.0906   476.8    5.220      34.511
2015    3        3     0  47    5.0946   476.7    5.227      34.508
2015    3        3     0  52    5.0987   476.6    5.235      34.505
2015    3        3     0  58    5.1026   476.5    5.243      34.502
2015    3        3     1   3    5.1067   476.4    5.250      34.500
2015    3        3     1   8    5.1107   476.3    5.258      34.498
2015    3        3     1  13    5.1147   476.2    5.266      34.495
2015    3        3     1  19    5.1188   476.1    5.273      34.493
2015    3        3     1  24    5.1228   476.0    5.281      34.491
2015    3        3     1  29    5.1269   476.0    5.288      34.489
2015    3        3     1  35    5.1310   475.9    5.296      34.488
2015    3        3     1  40    5.1351   475.8    5.304      34.486
2015    3        3     1  45    5.1392   475.7    5.311      34.485
2015    3        3     1  51    5.1434   475.6    5.319      34.484
2015    3        3     1  56    5.1476   475.5    5.327      34.483
2015    3        3     2   1    5.1517   475.5    5.335      34.482
2015    3        3     2   7    5.1559   475.4    5.342      34.482
2015    3        3     2  12    5.1601   475.3    5.350      34.482
2015    3        3     2  17    5.1643   475.2    5.358      34.483
2015    3        3     2  22    5.1684   475.1    5.366      34.484
2015    3        3     2  28    5.1726   475.1    5.374      34.485
2015    3        3     2  33    5.1768   475.0    5.381      34.487
2015    3        3     2  38    5.1810   474.9    5.389      34.490
2015    3        3     2  44    5.1852   474.9    5.397      34.492
2015    3        3     2  49    5.1894   474.8    5.404      34.495
2015    3        3     2  54    5.1935   474.7    5.412      34.499
2015    3        3     3   0    5.1977   474.7    5.419      34.502
2015    3        3     3   5    5.2018   474.6    5.427      34.505
2015    3        3     3  10    5.2060   474.5    5.434      34.509
2015    3        3     3  15    5.2101   474.5    5.441      34.513
2015    3        3     3  21    5.2142   474.4    5.448      34.517
2015    3        3     3  26    5.2183   474.3    5.455      34.520
2015    3        3     3  31    5.2224   474.3    5.462      34.524
2015    3        3     3  37    5.2265   474.2    5.469      34.527
2015    3        3     3  42    5.2306   474.2    5.475      34.530
2015    3        3     3  47    5.2346   474.1    5.482      34.533
2015    3        3     3  53    5.2386   474.0    5.488      34.535
2015    3        3     3  58    5.2427   474.0    5.495      34.538
2015    3        3     4   3    5.2467   473.9    5.501      34.540
2015    3        3     4   8    5.2507   473.9    5.507      34.542
2015    3        3     4  14    5.2548   473.8    5.513      34.543
2015    3        3     4  19    5.2588   473.7    5.519      34.545
2015    3        3     4  24    5.2628   473.7    5.525      34.546
2015    3        3     4  30    5.2668   473.6    5.531      34.547
2015    3        3     4  35    5.2708   473.6    5.537      34.548
2015    3        3     4  40    5.2748   473.5    5.543      34.549
2015    3        3     4  46    5.2788   473.4    5.548      34.549
2015    3        3     4  51    5.2829   473.4    5.554      34.549
2015    3        3     4  56    5.2868   473.3    5.560      34.550
2015    3        3     5   1    5.2909   473.3    5.565      34.550
2015    3        3     5   7    5.2948   473.2    5.571      34.549
2015    3        3     5  12    5.2989   473.1    5.576      34.549
2015    3        3     5  17    5.3028   473.1    5.582      34.549
2015    3        3     5  23    5.3068   473.0    5.587      34.548
2015    3        3     5  28    5.3109   473.0    5.593      34.548
2015    3        3     5  33    5.3149   472.9    5.598      34.547
2015    3        3     5  39    5.3189   472.8    5.604      34.546
2015    3        3     5  44    5.3229   472.8    5.609      34.546
2015    3        3     5  49    5.3269   472.7    5.615      34.545
2015    3        3     5  55    5.3309   472.7    5.620      34.544
2015    3        3     6   0    5.3350   472.6    5.626      34.544
2015    3        3     6   5    5.3390   472.5    5.631      34.543
2015    3        3     6  10    5.3431   472.5    5.637      34.543
2015    3        3     6  16    5.3471   472.4    5.642      34.543
2015    3        3     6  21    5.3512   472.4    5.648      34.543
2015    3        3     6  26    5.3553   472.3    5.654      34.543
2015    3        3     6  32    5.3594   472.3    5.659      34.544
2015    3        3     6  37    5.3635   472.2    5.665      34.545
2015    3        3     6  42    5.3677   472.2    5.671      34.546
2015    3        3     6  48    5.3719   472.1    5.677      34.548
2015    3        3     6  53    5.3760   472.0    5.683      34.550
2015    3        3     6  58    5.3802   472.0    5.689      34.553
2015    3        3     7   3    5.3844   471.9    5.695      34.557
2015    3        3     7   9    5.3887   471.9    5.701      34.561
2015    3        3     7  14    5.3929   471.8    5.707      34.565
2015    3        3     7  19    5.3971   471.8    5.713      34.570
2015    3        3     7  25    5.4014   471.7    5.719      34.576
2015    3        3     7  30    5.4057   471.7    5.726      34.581
2015    3        3     7  35    5.4100   471.7    5.732      34.587
2015    3        3     7  41    5.4142   471.6    5.738      34.594
2015    3        3     7  46    5.4185   471.6    5.744      34.601
2015    3        3     7  51    5.4228   471.5    5.750      34.608
2015    3        3     7  56    5.4271   471.5    5.756      34.615
2015    3        3     8   2    5.4314   471.4    5.762      34.623
2015    3        3     8   7    5.4357   471.4    5.768      34.630
2015    3        3     8  12    5.4401   471.3    5.774      34.638
2015    3        3     8  18    5.4444   471.3    5.780      34.646
2015    3        3     8  23    5.4488   471.3    5.786      34.654
2015    3        3     8  28    5.4531   471.2    5.792      34.662
2015    3        3     8  34    5.4575   471.2    5.799      34.671
2015    3        3     8  39    5.4619   471.1    5.805      34.680
2015    3        3     8  44    5.4664   471.1    5.811      34.689
2015    3        3     8  49    5.4708   471.1    5.817      34.700
2015    3        3     8  55    5.4752   471.0    5.824      34.711
2015    3        3     9   0    5.4797   471.0    5.830      34.722
2015    3        3     9   5    5.4842   471.0    5.836      34.734
2015    3        3     9  11    5.4886   470.9    5.843      34.747
2015    3        3     9  16    5.4931   470.9    5.849      34.760
2015    3        3     9  21    5.4976   470.9    5.855      34.774
2015    3        3     9  27    5.5020   470.9    5.861      34.789
2015    3        3     9  32    5.5065   470.8    5.867      34.804
2015    3        3     9  37    5.5109   470.8    5.873      34.819
2015    3        3     9  42    5.5153   470.8    5.879      34.835
2015    3        3     9  48    5.5197   470.8    5.885      34.851
2015    3        3     9  53    5.5240   470.8    5.890      34.867
2015    3        3     9  58    5.5284   470.7    5.896      34.883
2015    3        3    10   4    5.5327   470.7    5.901      34.899
2015    3        3    10   9    5.5370   470.7    5.906      34.914
2015    3        3    10  14    5.5413   470.7    5.911      34.930
2015    3        3    10  20    5.5455   470.7    5.916      34.944
2015    3        3    10  25    5.5498   470.7    5.921      34.959
2015    3        3    10  30    5.5540   470.7    5.925      34.973
2015    3        3    10  36    5.5582   470.6    5.930      34.987
2015    3        3    10  41    5.5624   470.6    5.934      35.001
2015    3        3    10  46    5.5666   470.6    5.938      35.013
2015    3        3    10  51    5.5707   470.6    5.942      35.025
2015    3        3    10  57    5.5749   470.6    5.946      35.037
2015    3        3    11   2    5.5790   470.6    5.950      35.048
2015    3        3    11   7    5.5832   470.6    5.954      35.059
2015    3        3    11  13    5.5873   470.5    5.958      35.070
2015    3        3    11  18    5.5914   470.5    5.962      35.080
2015    3        3    11  23    5.5955   470.5    5.965      35.090
2015    3        3    11  29    5.5997   470.5    5.969      35.099
2015    3        3    11  34    5.6038   470.5    5.972      35.108
2015    3        3    11  39    5.6079   470.5    5.976      35.117
2015    3        3    11  44    5.6120   470.5    5.979      35.126
2015    3        3    11  50    5.6161   470.4    5.983      35.134
2015    3        3    11  55    5.6202   470.4    5.986      35.143
2015    3        3    12   0    5.6242   470.4    5.989      35.151
2015    3        3    12   6    5.6284   470.4    5.993      35.158
2015    3        3    12  11    5.6324   470.4    5.996      35.166
2015    3        3    12  16    5.6365   470.4    6.000      35.174
2015    3        3    12  22    5.6406   470.3    6.003      35.181
2015    3        3    12  27    5.6447   470.3    6.006      35.189
2015    3        3    12  32    5.6488   470.3    6.010      35.197
2015    3        3    12  37    5.6529   470.3    6.013      35.204
2015    3        3    12  43    5.6570   470.3    6.017      35.212
2015    3        3    12  48    5.6611   470.3    6.020      35.219
2015    3        3    12  53    5.6653   470.3    6.024      35.227
2015    3        3    12  59    5.6694   470.2    6.028      35.235
2015    3        3    13   4    5.6735   470.2    6.031      35.243
2015    3        3    13   9    5.6777   470.2    6.035      35.251
2015    3        3    13  15    5.6819   470.2    6.039      35.260
2015    3        3    13  20    5.6860   470.2    6.043      35.269
2015    3        3    13  25    5.6902   470.2    6.047      35.278
2015    3        3    13  30    5.6944   470.2    6.052      35.288
2015    3        3    13  36    5.6986   470.1    6.056      35.298
2015    3        3    13  41    5.7029   470.1    6.060      35.310
2015    3        3    13  46    5.7071   470.1    6.065      35.321
2015    3        3    13  52    5.7113   470.1    6.069      35.334
2015    3        3    13  57    5.7156   470.1    6.074      35.346
2015    3        3    14   2    5.7198   470.1    6.078      35.360
2015    3        3    14   8    5.7240   470.1    6.083      35.373
2015    3        3    14  13    5.7283   470.1    6.087      35.387
2015    3        3    14  18    5.7325   470.1    6.092      35.402
2015    3        3    14  23    5.7368   470.1    6.096      35.416
2015    3        3    14  29    5.7411   470.1    6.101      35.431
2015    3        3    14  34    5.7453   470.1    6.105      35.447
2015    3        3    14  39    5.7496   470.1    6.110      35.462
2015    3        3    14  45    5.7539   470.0    6.114      35.478
2015    3        3    14  50    5.7582   470.0    6.119      35.493
2015    3        3    14  55    5.7624   470.0    6.124      35.509
2015    3        3    15   1    5.7668   470.0    6.128      35.525
2015    3        3    15   6    5.7711   470.0    6.133      35.542
2015    3        3    15  11    5.7754   470.0    6.138      35.559
2015    3        3    15  17    5.7798   470.0    6.143      35.578
2015    3        3    15  22    5.7841   470.0    6.148      35.596
2015    3        3    15  27    5.7884   470.0    6.152      35.616
2015    3        3    15  32    5.7928   470.1    6.157      35.636
2015    3        3    15  38    5.7972   470.1    6.162      35.657
2015    3        3    15  43    5.8015   470.1    6.167      35.678
2015    3        3    15  48    5.8058   470.1    6.171      35.700
2015    3        3    15  54    5.8101   470.1    6.176      35.723
2015    3        3    15  59    5.8144   470.1    6.180      35.747
2015    3        3    16   4    5.8187   470.1    6.184      35.771
2015    3        3    16  10    5.8231   470.1    6.189      35.795
2015    3        3    16  15    5.8273   470.2    6.192      35.820
2015    3        3    16  20    5.8315   470.2    6.196      35.845
2015    3        3    16  25    5.8357   470.2    6.200      35.869
2015    3        3    16  31    5.8399   470.2    6.203      35.894
2015    3        3    16  36    5.8440   470.2    6.207      35.918
2015    3        3    16  41    5.8482   470.3    6.210      35.941
2015    3        3    16  47    5.8522   470.3    6.213      35.965
2015    3        3    16  52    5.8564   470.3    6.215      35.988
2015    3        3    16  57    5.8604   470.3    6.218      36.011
2015    3        3    17   3    5.8645   470.3    6.220      36.033
2015    3        3    17   8    5.8685   470.4    6.223      36.055
2015    3        3    17  13    5.8724   470.4    6.225      36.076
2015    3        3    17  18    5.8765   470.4    6.227      36.096
2015    3        3    17  24    5.8805   470.4    6.229      36.117
2015    3        3    17  29    5.8844   470.5    6.231      36.136
2015    3        3    17  34    5.8885   470.5    6.232      36.155
2015    3        3    17  40    5.8924   470.5    6.234      36.174
2015    3        3    17  45    5.8964   470.5    6.236      36.192
2015    3        3    17  50    5.9003   470.5    6.237      36.210
2015    3        3    17  56    5.9043   470.6    6.239      36.228
2015    3        3    18   1    5.9082   470.6    6.240      36.245
2015    3        3    18   6    5.9122   470.6    6.241      36.263
2015    3        3    18  11    5.9160   470.6    6.243      36.279
2015    3        3    18  17    5.9200   470.6    6.244      36.296
2015    3        3    18  22    5.9240   470.7    6.245      36.312
2015    3        3    18  27    5.9279   470.7    6.247      36.328
2015    3        3    18  33    5.9318   470.7    6.248      36.344
2015    3        3    18  38    5.9358   470.7    6.249      36.360
2015    3        3    18  43    5.9396   470.7    6.250      36.376
2015    3        3    18  49    5.9436   470.8    6.251      36.392
2015    3        3    18  54    5.9476   470.8    6.253      36.407
2015    3        3    18  59    5.9515   470.8    6.254      36.423
2015    3        3    19   4    5.9555   470.8    6.255      36.438
2015    3        3    19  10    5.9594   470.8    6.256      36.454
2015    3        3    19  15    5.9633   470.9    6.258      36.469
2015    3        3    19  20    5.9672   470.9    6.259      36.485
2015    3        3    19  26    5.9713   470.9    6.261      36.501
2015    3        3    19  31    5.9752   470.9    6.262      36.516
2015    3        3    19  36    5.9792   470.9    6.264      36.532
2015    3        3    19  42    5.9832   471.0    6.265      36.548
2015    3        3    19  47    5.9872   471.0    6.267      36.565
2015    3        3    19  52    5.9912   471.0    6.269      36.581
2015    3        3    19  58    5.9951   471.0    6.271      36.598
2015    3        3    20   3    5.9992   471.1    6.273      36.615
2015    3        3    20   8    6.0032   471.1    6.275      36.633
2015    3        3    20  13    6.0072   471.1    6.278      36.650
2015    3        3    20  19    6.0113   471.1    6.280      36.669
2015    3        3    20  24    6.0154   471.2    6.283      36.688
2015    3        3    20  29    6.0194   471.2    6.285      36.708
2015    3        3    20  35    6.0235   471.2    6.288      36.728
2015    3        3    20  40    6.0275   471.2    6.291      36.749
2015    3        3    20  45    6.0316   471.3    6.294      36.771
2015    3        3    20  51    6.0356   471.3    6.297      36.793
2015    3        3    20  56    6.0396   471.3    6.300      36.816
2015    3        3    21   1    6.0438   471.4    6.303      36.839
2015    3        3    21   6    6.0478   471.4    6.306      36.863
2015    3        3    21  12    6.0518   471.4    6.309      36.887
2015    3        3    21  17    6.0559   471.5    6.312      36.911
2015    3        3    21  22    6.0599   471.5    6.315      36.936
2015    3        3    21  28    6.0639   471.5    6.319      36.961
2015    3        3    21  33    6.0679   471.6    6.322      36.987
2015    3        3    21  38    6.0720   471.6    6.325      37.013
2015    3        3    21  44    6.0761   471.6    6.329      37.038
2015    3        3    21  49    6.0800   471.7    6.333      37.064
2015    3        3    21  54    6.0842   471.7    6.336      37.090
2015    3        3    21  59    6.0882   471.7    6.340      37.117
2015    3        3    22   5    6.0922   471.8    6.344      37.145
2015    3        3    22  10    6.0964   471.8    6.348      37.174
2015    3        3    22  15    6.1003   471.9    6.351      37.204
2015    3        3    22  21    6.1044   471.9    6.355      37.235
2015    3        3    22  26    6.1084   472.0    6.359      37.267
2015    3        3    22  31    6.1124   472.0    6.362      37.301
2015    3        3    22  37    6.1165   472.1    6.366      37.334
2015    3        3    22  42    6.1205   472.1    6.369      37.369
2015    3        3    22  47    6.1245   472.2    6.372      37.404
2015    3        3    22  52    6.1284   472.2    6.375      37.439
2015    3        3    22  58    6.1323   472.3    6.377      37.474
2015    3        3    23   3    6.1362   472.3    6.380      37.510
2015    3        3    23   8    6.1401   472.4    6.382      37.546
2015    3        3    23  14    6.1439   472.4    6.384      37.582
2015    3        3    23  19    6.1477   472.5    6.385      37.617
2015    3        3    23  24    6.1515   472.6    6.387      37.651
2015    3        3    23  30    6.1553   472.6    6.388      37.685
2015    3        3    23  35    6.1591   472.7    6.390      37.718
2015    3        3    23  40    6.1628   472.7    6.391      37.751
2015    3        3    23  45    6.1665   472.8    6.391      37.783
2015    3        3    23  51    6.1703   472.8    6.392      37.814
2015    3        3    23  56    6.1739   472.9    6.393      37.845
2015    3        4     0   1    6.1776   472.9    6.393      37.875
2015    3        4     0   7    6.1814   473.0    6.394      37.905
2015    3        4     0  12    6.1851   473.0    6.394      37.934
2015    3        4     0  17    6.1887   473.1    6.394      37.962
2015    3        4     0  23    6.1925   473.2    6.394      37.991
2015    3        4     0  28    6.1962   473.2    6.394      38.018
2015    3        4     0  33    6.1998   473.3    6.394      38.046
2015    3        4     0  39    6.2035   473.3    6.393      38.073
2015    3        4     0  44    6.2072   473.4    6.393      38.099
2015    3        4     0  49    6.2109   473.4    6.393      38.126
2015    3        4     0  54    6.2145   473.5    6.392      38.152
2015    3        4     1   0    6.2182   473.5    6.392      38.177
2015    3        4     1   5    6.2219   473.6    6.392      38.203
2015    3        4     1  10    6.2256   473.6    6.391      38.228
2015    3        4     1  16    6.2292   473.7    6.391      38.253
2015    3        4     1  21    6.2329   473.7    6.390      38.278
2015    3        4     1  26    6.2366   473.8    6.389      38.302
2015    3        4     1  32    6.2403   473.8    6.389      38.327
2015    3        4     1  37    6.2439   473.9    6.388      38.351
2015    3        4     1  42    6.2476   473.9    6.388      38.375
2015    3        4     1  47    6.2513   474.0    6.387      38.399
