year    month   day   hour  minute  B_enl V_enl   n_enl       T_enl
[year] [month] [day] [hour][minute] [nT]  [km/s]  [cm-3]      [kK]
2015    3       27     0   3    4.4138   626.2    3.417      64.704
2015    3       27     0   9    4.4086   626.2    3.412      64.658
2015    3       27     0  14    4.4035   626.2    3.408      64.612
2015    3       27     0  20    4.3984   626.2    3.403      64.567
2015    3       27     0  26    4.3932   626.2    3.399      64.522
2015    3       27     0  32    4.3881   626.2    3.395      64.476
2015    3       27     0  37    4.3830   626.2    3.391      64.431
2015    3       27     0  43    4.3778   626.2    3.386      64.386
2015    3       27     0  49    4.3727   626.2    3.382      64.342
2015    3       27     0  55    4.3677   626.1    3.379      64.298
2015    3       27     1   0    4.3626   626.1    3.375      64.255
2015    3       27     1   6    4.3575   626.1    3.371      64.212
2015    3       27     1  12    4.3525   626.1    3.368      64.170
2015    3       27     1  18    4.3474   626.0    3.364      64.129
2015    3       27     1  23    4.3424   626.0    3.361      64.089
2015    3       27     1  29    4.3374   625.9    3.357      64.050
2015    3       27     1  35    4.3325   625.9    3.354      64.012
2015    3       27     1  41    4.3275   625.9    3.351      63.975
2015    3       27     1  46    4.3226   625.8    3.348      63.939
2015    3       27     1  52    4.3177   625.8    3.345      63.904
2015    3       27     1  58    4.3128   625.7    3.343      63.870
2015    3       27     2   4    4.3079   625.7    3.340      63.836
2015    3       27     2  10    4.3031   625.6    3.337      63.803
2015    3       27     2  15    4.2983   625.6    3.335      63.770
2015    3       27     2  21    4.2935   625.5    3.332      63.738
2015    3       27     2  27    4.2887   625.5    3.329      63.705
2015    3       27     2  33    4.2839   625.4    3.326      63.671
2015    3       27     2  38    4.2791   625.4    3.323      63.636
2015    3       27     2  44    4.2743   625.3    3.320      63.600
2015    3       27     2  50    4.2695   625.3    3.317      63.562
2015    3       27     2  56    4.2647   625.2    3.314      63.522
2015    3       27     3   1    4.2599   625.2    3.311      63.482
2015    3       27     3   7    4.2551   625.1    3.308      63.440
2015    3       27     3  13    4.2503   625.1    3.305      63.397
2015    3       27     3  19    4.2454   625.0    3.301      63.352
2015    3       27     3  24    4.2406   625.0    3.298      63.307
2015    3       27     3  30    4.2358   624.9    3.294      63.261
2015    3       27     3  36    4.2309   624.8    3.291      63.213
2015    3       27     3  42    4.2261   624.8    3.287      63.165
2015    3       27     3  47    4.2213   624.7    3.284      63.116
2015    3       27     3  53    4.2164   624.7    3.280      63.066
2015    3       27     3  59    4.2116   624.6    3.276      63.015
2015    3       27     4   5    4.2068   624.5    3.272      62.964
2015    3       27     4  10    4.2020   624.5    3.269      62.912
2015    3       27     4  16    4.1971   624.4    3.265      62.859
2015    3       27     4  22    4.1924   624.3    3.261      62.806
2015    3       27     4  28    4.1875   624.2    3.257      62.752
2015    3       27     4  33    4.1828   624.2    3.253      62.698
2015    3       27     4  39    4.1780   624.1    3.250      62.643
2015    3       27     4  45    4.1732   624.0    3.246      62.588
2015    3       27     4  51    4.1684   623.9    3.242      62.532
2015    3       27     4  57    4.1637   623.9    3.238      62.475
2015    3       27     5   2    4.1589   623.8    3.234      62.418
2015    3       27     5   8    4.1541   623.7    3.230      62.361
2015    3       27     5  14    4.1494   623.6    3.226      62.303
2015    3       27     5  20    4.1447   623.5    3.222      62.245
2015    3       27     5  25    4.1399   623.4    3.218      62.186
2015    3       27     5  31    4.1352   623.3    3.214      62.126
2015    3       27     5  37    4.1305   623.2    3.210      62.066
2015    3       27     5  43    4.1258   623.1    3.206      62.006
2015    3       27     5  48    4.1211   623.0    3.202      61.946
2015    3       27     5  54    4.1164   623.0    3.198      61.885
2015    3       27     6   0    4.1117   622.8    3.194      61.824
2015    3       27     6   6    4.1070   622.7    3.190      61.762
2015    3       27     6  11    4.1023   622.6    3.186      61.700
2015    3       27     6  17    4.0977   622.5    3.182      61.638
2015    3       27     6  23    4.0930   622.4    3.178      61.576
2015    3       27     6  29    4.0883   622.3    3.174      61.513
2015    3       27     6  34    4.0837   622.2    3.170      61.450
2015    3       27     6  40    4.0790   622.1    3.166      61.387
2015    3       27     6  46    4.0744   622.0    3.162      61.324
2015    3       27     6  52    4.0698   621.8    3.158      61.260
2015    3       27     6  57    4.0652   621.7    3.154      61.196
2015    3       27     7   3    4.0605   621.6    3.150      61.133
2015    3       27     7   9    4.0559   621.5    3.146      61.068
2015    3       27     7  15    4.0513   621.3    3.143      61.004
2015    3       27     7  21    4.0467   621.2    3.139      60.940
2015    3       27     7  26    4.0422   621.1    3.135      60.876
2015    3       27     7  32    4.0376   620.9    3.132      60.811
2015    3       27     7  38    4.0330   620.8    3.128      60.747
2015    3       27     7  44    4.0285   620.7    3.125      60.683
2015    3       27     7  49    4.0239   620.5    3.121      60.618
2015    3       27     7  55    4.0194   620.4    3.118      60.554
2015    3       27     8   1    4.0149   620.2    3.115      60.490
2015    3       27     8   7    4.0104   620.1    3.112      60.426
2015    3       27     8  12    4.0059   619.9    3.109      60.363
2015    3       27     8  18    4.0015   619.8    3.106      60.300
2015    3       27     8  24    3.9971   619.6    3.103      60.237
2015    3       27     8  30    3.9926   619.5    3.100      60.174
2015    3       27     8  35    3.9882   619.3    3.097      60.112
2015    3       27     8  41    3.9838   619.1    3.095      60.051
2015    3       27     8  47    3.9795   619.0    3.092      59.989
2015    3       27     8  53    3.9752   618.8    3.090      59.929
2015    3       27     8  58    3.9708   618.6    3.087      59.868
2015    3       27     9   4    3.9665   618.5    3.085      59.809
2015    3       27     9  10    3.9623   618.3    3.083      59.749
2015    3       27     9  16    3.9580   618.1    3.081      59.690
2015    3       27     9  21    3.9537   618.0    3.078      59.631
2015    3       27     9  27    3.9495   617.8    3.076      59.572
2015    3       27     9  33    3.9453   617.6    3.074      59.514
2015    3       27     9  39    3.9411   617.4    3.072      59.455
2015    3       27     9  44    3.9369   617.2    3.070      59.397
2015    3       27     9  50    3.9327   617.1    3.068      59.338
2015    3       27     9  56    3.9285   616.9    3.066      59.279
2015    3       27    10   2    3.9243   616.7    3.064      59.219
2015    3       27    10   8    3.9202   616.5    3.063      59.159
2015    3       27    10  13    3.9160   616.3    3.061      59.098
2015    3       27    10  19    3.9118   616.1    3.059      59.037
2015    3       27    10  25    3.9077   615.9    3.057      58.976
2015    3       27    10  31    3.9035   615.7    3.055      58.914
2015    3       27    10  36    3.8994   615.5    3.053      58.852
2015    3       27    10  42    3.8953   615.4    3.051      58.789
2015    3       27    10  48    3.8911   615.2    3.049      58.726
2015    3       27    10  54    3.8870   615.0    3.047      58.663
2015    3       27    10  59    3.8829   614.8    3.045      58.599
2015    3       27    11   5    3.8788   614.6    3.043      58.534
2015    3       27    11  11    3.8747   614.4    3.041      58.469
2015    3       27    11  17    3.8706   614.2    3.039      58.404
2015    3       27    11  22    3.8666   614.0    3.037      58.338
2015    3       27    11  28    3.8625   613.7    3.035      58.272
2015    3       27    11  34    3.8585   613.5    3.033      58.205
2015    3       27    11  40    3.8544   613.3    3.031      58.137
2015    3       27    11  45    3.8504   613.1    3.029      58.069
2015    3       27    11  51    3.8464   612.9    3.027      58.001
2015    3       27    11  57    3.8424   612.7    3.025      57.932
2015    3       27    12   3    3.8384   612.5    3.023      57.863
2015    3       27    12   8    3.8344   612.3    3.021      57.792
2015    3       27    12  14    3.8304   612.1    3.019      57.722
2015    3       27    12  20    3.8264   611.8    3.017      57.651
2015    3       27    12  26    3.8225   611.6    3.015      57.580
2015    3       27    12  31    3.8185   611.4    3.013      57.508
2015    3       27    12  37    3.8146   611.2    3.011      57.435
2015    3       27    12  43    3.8107   611.0    3.009      57.362
2015    3       27    12  49    3.8068   610.7    3.007      57.289
2015    3       27    12  55    3.8028   610.5    3.004      57.216
2015    3       27    13   0    3.7990   610.3    3.002      57.142
2015    3       27    13   6    3.7951   610.1    3.000      57.067
2015    3       27    13  12    3.7912   609.8    2.998      56.993
2015    3       27    13  18    3.7874   609.6    2.996      56.918
2015    3       27    13  23    3.7835   609.4    2.994      56.843
2015    3       27    13  29    3.7797   609.1    2.992      56.768
2015    3       27    13  35    3.7759   608.9    2.990      56.692
2015    3       27    13  41    3.7721   608.6    2.988      56.617
2015    3       27    13  46    3.7683   608.4    2.986      56.542
2015    3       27    13  52    3.7645   608.2    2.984      56.466
2015    3       27    13  58    3.7607   607.9    2.982      56.391
2015    3       27    14   4    3.7570   607.7    2.980      56.316
2015    3       27    14   9    3.7532   607.4    2.978      56.240
2015    3       27    14  15    3.7495   607.2    2.976      56.165
2015    3       27    14  21    3.7458   606.9    2.974      56.090
2015    3       27    14  27    3.7420   606.7    2.972      56.015
2015    3       27    14  32    3.7383   606.4    2.970      55.940
2015    3       27    14  38    3.7347   606.2    2.968      55.865
2015    3       27    14  44    3.7310   605.9    2.967      55.791
2015    3       27    14  50    3.7273   605.7    2.965      55.716
2015    3       27    14  55    3.7237   605.4    2.963      55.642
2015    3       27    15   1    3.7200   605.2    2.961      55.567
2015    3       27    15   7    3.7164   604.9    2.960      55.492
2015    3       27    15  13    3.7128   604.6    2.958      55.418
2015    3       27    15  18    3.7092   604.4    2.956      55.344
2015    3       27    15  24    3.7056   604.1    2.954      55.269
2015    3       27    15  30    3.7020   603.9    2.953      55.195
2015    3       27    15  36    3.6985   603.6    2.951      55.120
2015    3       27    15  42    3.6949   603.3    2.950      55.046
2015    3       27    15  47    3.6914   603.1    2.948      54.971
2015    3       27    15  53    3.6879   602.8    2.946      54.897
2015    3       27    15  59    3.6844   602.5    2.945      54.822
2015    3       27    16   5    3.6809   602.3    2.943      54.748
2015    3       27    16  10    3.6775   602.0    2.942      54.674
2015    3       27    16  16    3.6740   601.7    2.940      54.600
2015    3       27    16  22    3.6706   601.4    2.939      54.526
2015    3       27    16  28    3.6672   601.2    2.937      54.452
2015    3       27    16  33    3.6638   600.9    2.936      54.379
2015    3       27    16  39    3.6604   600.6    2.935      54.305
2015    3       27    16  45    3.6571   600.3    2.934      54.232
2015    3       27    16  51    3.6538   600.0    2.932      54.159
2015    3       27    16  56    3.6504   599.8    2.931      54.087
2015    3       27    17   2    3.6471   599.5    2.930      54.014
2015    3       27    17   8    3.6439   599.2    2.929      53.942
2015    3       27    17  14    3.6406   598.9    2.928      53.870
2015    3       27    17  19    3.6373   598.6    2.927      53.798
2015    3       27    17  25    3.6341   598.3    2.926      53.727
2015    3       27    17  31    3.6309   598.0    2.925      53.656
2015    3       27    17  37    3.6277   597.8    2.924      53.584
2015    3       27    17  42    3.6245   597.5    2.923      53.513
2015    3       27    17  48    3.6213   597.2    2.922      53.443
2015    3       27    17  54    3.6182   596.9    2.921      53.372
2015    3       27    18   0    3.6150   596.6    2.920      53.301
2015    3       27    18   5    3.6119   596.3    2.920      53.230
2015    3       27    18  11    3.6087   596.0    2.919      53.159
2015    3       27    18  17    3.6056   595.7    2.918      53.088
2015    3       27    18  23    3.6025   595.4    2.917      53.017
2015    3       27    18  29    3.5994   595.1    2.917      52.946
2015    3       27    18  34    3.5963   594.8    2.916      52.875
2015    3       27    18  40    3.5933   594.5    2.915      52.803
2015    3       27    18  46    3.5902   594.2    2.915      52.732
2015    3       27    18  52    3.5871   593.9    2.914      52.660
2015    3       27    18  57    3.5841   593.6    2.914      52.588
2015    3       27    19   3    3.5810   593.3    2.913      52.515
2015    3       27    19   9    3.5780   593.0    2.912      52.443
2015    3       27    19  15    3.5750   592.7    2.912      52.370
2015    3       27    19  20    3.5720   592.4    2.911      52.297
2015    3       27    19  26    3.5690   592.1    2.911      52.224
2015    3       27    19  32    3.5660   591.8    2.910      52.150
2015    3       27    19  38    3.5630   591.5    2.910      52.076
2015    3       27    19  43    3.5600   591.1    2.910      52.002
2015    3       27    19  49    3.5571   590.8    2.909      51.928
2015    3       27    19  55    3.5541   590.5    2.909      51.853
2015    3       27    20   1    3.5512   590.2    2.909      51.779
2015    3       27    20   6    3.5482   589.9    2.908      51.704
2015    3       27    20  12    3.5453   589.6    2.908      51.629
2015    3       27    20  18    3.5423   589.3    2.908      51.554
2015    3       27    20  24    3.5394   589.0    2.907      51.479
2015    3       27    20  29    3.5365   588.7    2.907      51.404
2015    3       27    20  35    3.5336   588.3    2.907      51.329
2015    3       27    20  41    3.5307   588.0    2.907      51.253
2015    3       27    20  47    3.5278   587.7    2.906      51.178
2015    3       27    20  52    3.5249   587.4    2.906      51.103
2015    3       27    20  58    3.5220   587.1    2.906      51.028
2015    3       27    21   4    3.5191   586.8    2.906      50.953
2015    3       27    21  10    3.5162   586.4    2.906      50.878
2015    3       27    21  16    3.5133   586.1    2.906      50.803
2015    3       27    21  21    3.5105   585.8    2.906      50.729
2015    3       27    21  27    3.5076   585.5    2.905      50.655
2015    3       27    21  33    3.5047   585.2    2.905      50.581
2015    3       27    21  39    3.5019   584.8    2.905      50.507
2015    3       27    21  44    3.4990   584.5    2.905      50.433
2015    3       27    21  50    3.4962   584.2    2.905      50.359
2015    3       27    21  56    3.4933   583.9    2.905      50.286
2015    3       27    22   2    3.4905   583.6    2.905      50.212
2015    3       27    22   7    3.4877   583.2    2.905      50.139
2015    3       27    22  13    3.4849   582.9    2.905      50.066
2015    3       27    22  19    3.4821   582.6    2.905      49.993
2015    3       27    22  25    3.4793   582.3    2.905      49.920
2015    3       27    22  30    3.4765   581.9    2.905      49.848
2015    3       27    22  36    3.4737   581.6    2.905      49.775
2015    3       27    22  42    3.4710   581.3    2.905      49.702
2015    3       27    22  48    3.4682   581.0    2.904      49.630
2015    3       27    22  53    3.4655   580.6    2.904      49.557
2015    3       27    22  59    3.4627   580.3    2.904      49.484
2015    3       27    23   5    3.4600   580.0    2.904      49.412
2015    3       27    23  11    3.4573   579.7    2.904      49.339
2015    3       27    23  16    3.4546   579.3    2.904      49.266
2015    3       27    23  22    3.4519   579.0    2.904      49.193
2015    3       27    23  28    3.4492   578.7    2.904      49.119
2015    3       27    23  34    3.4465   578.3    2.903      49.046
2015    3       27    23  39    3.4439   578.0    2.903      48.972
2015    3       27    23  45    3.4412   577.7    2.903      48.898
2015    3       27    23  51    3.4386   577.4    2.903      48.824
2015    3       27    23  57    3.4360   577.0    2.902      48.749
2015    3       28     0   3    3.4333   576.7    2.902      48.675
2015    3       28     0   8    3.4307   576.4    2.902      48.600
2015    3       28     0  14    3.4281   576.0    2.902      48.526
2015    3       28     0  20    3.4255   575.7    2.901      48.451
2015    3       28     0  26    3.4229   575.4    2.901      48.377
2015    3       28     0  31    3.4203   575.0    2.901      48.302
2015    3       28     0  37    3.4177   574.7    2.900      48.227
2015    3       28     0  43    3.4152   574.4    2.900      48.153
2015    3       28     0  49    3.4126   574.0    2.900      48.078
2015    3       28     0  54    3.4101   573.7    2.899      48.003
2015    3       28     1   0    3.4075   573.3    2.899      47.928
2015    3       28     1   6    3.4050   573.0    2.899      47.853
2015    3       28     1  12    3.4024   572.7    2.898      47.779
2015    3       28     1  17    3.3999   572.3    2.898      47.704
2015    3       28     1  23    3.3974   572.0    2.897      47.629
2015    3       28     1  29    3.3949   571.7    2.897      47.554
2015    3       28     1  35    3.3924   571.3    2.897      47.479
2015    3       28     1  40    3.3899   571.0    2.896      47.404
2015    3       28     1  46    3.3874   570.6    2.896      47.328
2015    3       28     1  52    3.3849   570.3    2.895      47.253
2015    3       28     1  58    3.3825   569.9    2.895      47.178
2015    3       28     2   3    3.3800   569.6    2.895      47.102
2015    3       28     2   9    3.3775   569.3    2.894      47.027
2015    3       28     2  15    3.3751   568.9    2.894      46.952
2015    3       28     2  21    3.3727   568.6    2.893      46.876
2015    3       28     2  26    3.3702   568.2    2.893      46.800
2015    3       28     2  32    3.3678   567.9    2.893      46.725
2015    3       28     2  38    3.3654   567.5    2.892      46.649
2015    3       28     2  44    3.3630   567.2    2.892      46.574
2015    3       28     2  49    3.3606   566.8    2.892      46.498
2015    3       28     2  55    3.3582   566.5    2.891      46.422
2015    3       28     3   1    3.3558   566.1    2.891      46.346
2015    3       28     3   7    3.3534   565.8    2.891      46.271
2015    3       28     3  13    3.3510   565.4    2.891      46.195
2015    3       28     3  18    3.3487   565.1    2.890      46.119
2015    3       28     3  24    3.3463   564.7    2.890      46.044
2015    3       28     3  30    3.3440   564.4    2.890      45.968
2015    3       28     3  36    3.3417   564.0    2.890      45.893
2015    3       28     3  41    3.3393   563.7    2.890      45.818
2015    3       28     3  47    3.3370   563.3    2.890      45.742
2015    3       28     3  53    3.3347   563.0    2.890      45.667
2015    3       28     3  59    3.3324   562.6    2.889      45.592
