year    month   day   hour  minute  B_enl V_enl   n_enl       T_enl
[year] [month] [day] [hour][minute] [nT]  [km/s]  [cm-3]      [kK]
2015    3        3     0   5    5.0631   477.4    5.166      34.542
2015    3        3     0  10    5.0670   477.3    5.174      34.537
2015    3        3     0  15    5.0709   477.2    5.181      34.532
2015    3        3     0  20    5.0749   477.1    5.189      34.527
2015    3        3     0  26    5.0788   477.0    5.197      34.523
2015    3        3     0  31    5.0828   477.0    5.205      34.519
2015    3        3     0  36    5.0867   476.9    5.212      34.516
2015    3        3     0  42    5.0907   476.8    5.220      34.512
2015    3        3     0  47    5.0947   476.7    5.228      34.509
2015    3        3     0  52    5.0987   476.6    5.235      34.506
2015    3        3     0  58    5.1027   476.5    5.243      34.503
2015    3        3     1   3    5.1067   476.4    5.251      34.501
2015    3        3     1   8    5.1108   476.3    5.258      34.498
2015    3        3     1  13    5.1148   476.2    5.266      34.496
2015    3        3     1  19    5.1189   476.1    5.273      34.494
2015    3        3     1  24    5.1229   476.1    5.281      34.492
2015    3        3     1  29    5.1270   476.0    5.289      34.490
2015    3        3     1  35    5.1311   475.9    5.296      34.488
2015    3        3     1  40    5.1353   475.8    5.304      34.487
2015    3        3     1  45    5.1393   475.7    5.312      34.486
2015    3        3     1  51    5.1435   475.6    5.319      34.485
2015    3        3     1  56    5.1476   475.5    5.327      34.484
2015    3        3     2   1    5.1518   475.5    5.335      34.483
2015    3        3     2   7    5.1560   475.4    5.343      34.483
2015    3        3     2  12    5.1602   475.3    5.350      34.483
2015    3        3     2  17    5.1643   475.2    5.358      34.483
2015    3        3     2  22    5.1686   475.2    5.366      34.485
2015    3        3     2  28    5.1728   475.1    5.374      34.486
2015    3        3     2  33    5.1769   475.0    5.381      34.489
2015    3        3     2  38    5.1812   474.9    5.389      34.491
2015    3        3     2  44    5.1853   474.9    5.397      34.494
2015    3        3     2  49    5.1895   474.8    5.404      34.497
2015    3        3     2  54    5.1936   474.7    5.412      34.500
2015    3        3     3   0    5.1978   474.7    5.419      34.503
2015    3        3     3   5    5.2020   474.6    5.427      34.507
2015    3        3     3  10    5.2061   474.5    5.434      34.510
2015    3        3     3  15    5.2102   474.5    5.441      34.514
2015    3        3     3  21    5.2143   474.4    5.448      34.518
2015    3        3     3  26    5.2184   474.4    5.455      34.521
2015    3        3     3  31    5.2225   474.3    5.462      34.525
2015    3        3     3  37    5.2265   474.2    5.469      34.528
2015    3        3     3  42    5.2306   474.2    5.475      34.531
2015    3        3     3  47    5.2347   474.1    5.482      34.534
2015    3        3     3  53    5.2387   474.1    5.488      34.536
2015    3        3     3  58    5.2428   474.0    5.495      34.539
2015    3        3     4   3    5.2468   473.9    5.501      34.541
2015    3        3     4   8    5.2508   473.9    5.507      34.543
2015    3        3     4  14    5.2548   473.8    5.513      34.544
2015    3        3     4  19    5.2588   473.8    5.519      34.546
2015    3        3     4  24    5.2628   473.7    5.525      34.547
2015    3        3     4  30    5.2669   473.6    5.531      34.548
2015    3        3     4  35    5.2709   473.6    5.537      34.549
2015    3        3     4  40    5.2749   473.5    5.543      34.549
2015    3        3     4  46    5.2789   473.5    5.548      34.550
2015    3        3     4  51    5.2829   473.4    5.554      34.550
2015    3        3     4  56    5.2869   473.3    5.560      34.550
2015    3        3     5   1    5.2909   473.3    5.565      34.550
2015    3        3     5   7    5.2949   473.2    5.571      34.550
2015    3        3     5  12    5.2989   473.2    5.576      34.550
2015    3        3     5  17    5.3029   473.1    5.582      34.549
2015    3        3     5  23    5.3068   473.0    5.587      34.549
2015    3        3     5  28    5.3109   473.0    5.593      34.548
2015    3        3     5  33    5.3149   472.9    5.598      34.547
2015    3        3     5  39    5.3189   472.9    5.604      34.547
2015    3        3     5  44    5.3229   472.8    5.609      34.546
2015    3        3     5  49    5.3269   472.7    5.615      34.545
2015    3        3     5  54    5.3309   472.7    5.620      34.545
2015    3        3     6   0    5.3350   472.6    5.626      34.544
2015    3        3     6   5    5.3390   472.6    5.631      34.544
2015    3        3     6  10    5.3431   472.5    5.637      34.544
2015    3        3     6  16    5.3471   472.4    5.642      34.543
2015    3        3     6  21    5.3512   472.4    5.648      34.543
2015    3        3     6  26    5.3553   472.3    5.654      34.544
2015    3        3     6  32    5.3594   472.3    5.659      34.544
2015    3        3     6  37    5.3636   472.2    5.665      34.545
2015    3        3     6  42    5.3677   472.2    5.671      34.547
2015    3        3     6  48    5.3719   472.1    5.677      34.548
2015    3        3     6  53    5.3760   472.1    5.683      34.551
2015    3        3     6  58    5.3802   472.0    5.689      34.554
2015    3        3     7   3    5.3844   472.0    5.695      34.557
2015    3        3     7   9    5.3887   471.9    5.701      34.561
2015    3        3     7  14    5.3929   471.9    5.707      34.566
2015    3        3     7  19    5.3971   471.8    5.713      34.571
2015    3        3     7  25    5.4014   471.8    5.720      34.576
2015    3        3     7  30    5.4057   471.7    5.726      34.582
2015    3        3     7  35    5.4099   471.7    5.732      34.588
2015    3        3     7  41    5.4142   471.6    5.738      34.595
2015    3        3     7  46    5.4185   471.6    5.744      34.602
2015    3        3     7  51    5.4228   471.5    5.750      34.609
2015    3        3     7  56    5.4271   471.5    5.756      34.616
2015    3        3     8   2    5.4314   471.4    5.762      34.623
2015    3        3     8   7    5.4357   471.4    5.768      34.631
2015    3        3     8  12    5.4401   471.4    5.774      34.639
2015    3        3     8  18    5.4444   471.3    5.780      34.647
2015    3        3     8  23    5.4488   471.3    5.786      34.655
2015    3        3     8  28    5.4531   471.2    5.793      34.663
2015    3        3     8  34    5.4575   471.2    5.799      34.672
2015    3        3     8  39    5.4619   471.2    5.805      34.681
2015    3        3     8  44    5.4664   471.1    5.811      34.690
2015    3        3     8  49    5.4708   471.1    5.818      34.701
2015    3        3     8  55    5.4752   471.0    5.824      34.712
2015    3        3     9   0    5.4797   471.0    5.830      34.724
2015    3        3     9   5    5.4842   471.0    5.836      34.736
2015    3        3     9  11    5.4886   471.0    5.843      34.748
2015    3        3     9  16    5.4931   470.9    5.849      34.762
2015    3        3     9  21    5.4976   470.9    5.855      34.776
2015    3        3     9  27    5.5020   470.9    5.861      34.790
2015    3        3     9  32    5.5065   470.9    5.867      34.805
2015    3        3     9  37    5.5109   470.8    5.873      34.821
2015    3        3     9  42    5.5153   470.8    5.879      34.836
2015    3        3     9  48    5.5197   470.8    5.885      34.852
2015    3        3     9  53    5.5240   470.8    5.890      34.869
2015    3        3     9  58    5.5283   470.8    5.896      34.885
2015    3        3    10   4    5.5327   470.7    5.901      34.901
2015    3        3    10   9    5.5370   470.7    5.906      34.916
2015    3        3    10  14    5.5412   470.7    5.911      34.931
2015    3        3    10  20    5.5455   470.7    5.916      34.946
2015    3        3    10  25    5.5497   470.7    5.921      34.961
2015    3        3    10  30    5.5540   470.7    5.925      34.975
2015    3        3    10  36    5.5582   470.7    5.930      34.989
2015    3        3    10  41    5.5623   470.6    5.934      35.002
2015    3        3    10  46    5.5665   470.6    5.938      35.014
2015    3        3    10  51    5.5707   470.6    5.942      35.027
2015    3        3    10  57    5.5748   470.6    5.946      35.038
2015    3        3    11   2    5.5790   470.6    5.950      35.050
2015    3        3    11   7    5.5831   470.6    5.954      35.060
2015    3        3    11  13    5.5872   470.6    5.958      35.071
2015    3        3    11  18    5.5914   470.5    5.962      35.081
2015    3        3    11  23    5.5955   470.5    5.965      35.091
2015    3        3    11  29    5.5996   470.5    5.969      35.100
2015    3        3    11  34    5.6037   470.5    5.972      35.109
2015    3        3    11  39    5.6078   470.5    5.976      35.118
2015    3        3    11  44    5.6119   470.5    5.979      35.127
2015    3        3    11  50    5.6160   470.5    5.983      35.135
2015    3        3    11  55    5.6201   470.4    5.986      35.143
2015    3        3    12   0    5.6242   470.4    5.989      35.151
2015    3        3    12   6    5.6283   470.4    5.993      35.159
2015    3        3    12  11    5.6324   470.4    5.996      35.167
2015    3        3    12  16    5.6364   470.4    5.999      35.175
2015    3        3    12  22    5.6405   470.4    6.003      35.182
2015    3        3    12  27    5.6446   470.3    6.006      35.190
2015    3        3    12  32    5.6487   470.3    6.010      35.197
2015    3        3    12  37    5.6528   470.3    6.013      35.204
2015    3        3    12  43    5.6569   470.3    6.017      35.212
2015    3        3    12  48    5.6610   470.3    6.020      35.220
2015    3        3    12  53    5.6652   470.3    6.024      35.227
2015    3        3    12  59    5.6693   470.3    6.028      35.235
2015    3        3    13   4    5.6734   470.2    6.031      35.243
2015    3        3    13   9    5.6776   470.2    6.035      35.252
2015    3        3    13  15    5.6818   470.2    6.039      35.260
2015    3        3    13  20    5.6860   470.2    6.043      35.269
2015    3        3    13  25    5.6902   470.2    6.047      35.279
2015    3        3    13  30    5.6943   470.2    6.052      35.288
2015    3        3    13  36    5.6986   470.2    6.056      35.299
2015    3        3    13  41    5.7027   470.1    6.060      35.310
2015    3        3    13  46    5.7070   470.1    6.065      35.322
2015    3        3    13  52    5.7112   470.1    6.069      35.334
2015    3        3    13  57    5.7154   470.1    6.074      35.347
2015    3        3    14   2    5.7197   470.1    6.078      35.360
2015    3        3    14   8    5.7240   470.1    6.083      35.374
2015    3        3    14  13    5.7282   470.1    6.087      35.388
2015    3        3    14  18    5.7324   470.1    6.092      35.402
2015    3        3    14  23    5.7367   470.1    6.096      35.417
2015    3        3    14  29    5.7410   470.1    6.101      35.432
2015    3        3    14  34    5.7452   470.1    6.105      35.447
2015    3        3    14  39    5.7495   470.1    6.110      35.463
2015    3        3    14  45    5.7538   470.1    6.114      35.478
2015    3        3    14  50    5.7580   470.1    6.119      35.494
2015    3        3    14  55    5.7623   470.1    6.124      35.510
2015    3        3    15   1    5.7667   470.1    6.128      35.526
2015    3        3    15   6    5.7710   470.1    6.133      35.543
2015    3        3    15  11    5.7753   470.1    6.138      35.560
2015    3        3    15  16    5.7796   470.1    6.143      35.578
2015    3        3    15  22    5.7840   470.1    6.148      35.597
2015    3        3    15  27    5.7883   470.1    6.152      35.617
2015    3        3    15  32    5.7927   470.1    6.157      35.637
2015    3        3    15  38    5.7970   470.1    6.162      35.657
2015    3        3    15  43    5.8014   470.1    6.167      35.679
2015    3        3    15  48    5.8058   470.1    6.171      35.701
2015    3        3    15  54    5.8101   470.1    6.176      35.724
2015    3        3    15  59    5.8143   470.1    6.180      35.748
2015    3        3    16   4    5.8186   470.1    6.184      35.772
2015    3        3    16  10    5.8229   470.2    6.188      35.796
2015    3        3    16  15    5.8271   470.2    6.192      35.821
2015    3        3    16  20    5.8314   470.2    6.196      35.846
2015    3        3    16  25    5.8356   470.2    6.200      35.870
2015    3        3    16  31    5.8397   470.2    6.203      35.895
2015    3        3    16  36    5.8439   470.3    6.206      35.919
2015    3        3    16  41    5.8480   470.3    6.209      35.943
2015    3        3    16  47    5.8521   470.3    6.212      35.966
2015    3        3    16  52    5.8562   470.3    6.215      35.989
2015    3        3    16  57    5.8603   470.3    6.218      36.012
2015    3        3    17   3    5.8643   470.4    6.220      36.034
2015    3        3    17   8    5.8683   470.4    6.222      36.056
2015    3        3    17  13    5.8724   470.4    6.225      36.077
2015    3        3    17  18    5.8763   470.4    6.227      36.097
2015    3        3    17  24    5.8803   470.4    6.229      36.117
2015    3        3    17  29    5.8843   470.5    6.230      36.137
2015    3        3    17  34    5.8883   470.5    6.232      36.156
2015    3        3    17  40    5.8923   470.5    6.234      36.175
2015    3        3    17  45    5.8962   470.5    6.235      36.193
2015    3        3    17  50    5.9001   470.6    6.237      36.211
2015    3        3    17  56    5.9041   470.6    6.238      36.228
2015    3        3    18   1    5.9080   470.6    6.240      36.246
2015    3        3    18   6    5.9119   470.6    6.241      36.263
2015    3        3    18  11    5.9159   470.6    6.242      36.280
2015    3        3    18  17    5.9198   470.7    6.244      36.296
2015    3        3    18  22    5.9237   470.7    6.245      36.313
2015    3        3    18  27    5.9277   470.7    6.246      36.329
2015    3        3    18  33    5.9316   470.7    6.247      36.345
2015    3        3    18  38    5.9355   470.7    6.249      36.361
2015    3        3    18  43    5.9395   470.8    6.250      36.376
2015    3        3    18  49    5.9434   470.8    6.251      36.392
2015    3        3    18  54    5.9474   470.8    6.252      36.407
2015    3        3    18  59    5.9513   470.8    6.254      36.423
2015    3        3    19   4    5.9552   470.8    6.255      36.438
2015    3        3    19  10    5.9592   470.9    6.256      36.454
2015    3        3    19  15    5.9632   470.9    6.257      36.469
2015    3        3    19  20    5.9671   470.9    6.259      36.485
2015    3        3    19  26    5.9711   470.9    6.260      36.501
2015    3        3    19  31    5.9751   470.9    6.262      36.517
2015    3        3    19  36    5.9790   471.0    6.263      36.532
2015    3        3    19  42    5.9830   471.0    6.265      36.548
2015    3        3    19  47    5.9870   471.0    6.267      36.565
2015    3        3    19  52    5.9910   471.0    6.269      36.581
2015    3        3    19  58    5.9950   471.1    6.271      36.598
2015    3        3    20   3    5.9991   471.1    6.273      36.615
2015    3        3    20   8    6.0031   471.1    6.275      36.633
2015    3        3    20  13    6.0071   471.1    6.277      36.651
2015    3        3    20  19    6.0111   471.1    6.280      36.669
2015    3        3    20  24    6.0152   471.2    6.282      36.688
2015    3        3    20  29    6.0193   471.2    6.285      36.708
2015    3        3    20  35    6.0233   471.2    6.288      36.728
2015    3        3    20  40    6.0274   471.3    6.291      36.750
2015    3        3    20  45    6.0314   471.3    6.293      36.771
2015    3        3    20  51    6.0354   471.3    6.296      36.794
2015    3        3    20  56    6.0395   471.3    6.299      36.817
2015    3        3    21   1    6.0436   471.4    6.302      36.840
2015    3        3    21   6    6.0476   471.4    6.306      36.863
2015    3        3    21  12    6.0517   471.4    6.309      36.887
2015    3        3    21  17    6.0557   471.5    6.312      36.912
2015    3        3    21  22    6.0597   471.5    6.315      36.937
2015    3        3    21  28    6.0638   471.5    6.319      36.962
2015    3        3    21  33    6.0678   471.6    6.322      36.987
2015    3        3    21  38    6.0719   471.6    6.325      37.013
2015    3        3    21  44    6.0759   471.6    6.329      37.039
2015    3        3    21  49    6.0799   471.7    6.333      37.065
2015    3        3    21  54    6.0839   471.7    6.336      37.091
2015    3        3    21  59    6.0881   471.8    6.340      37.118
2015    3        3    22   5    6.0921   471.8    6.344      37.145
2015    3        3    22  10    6.0962   471.8    6.348      37.174
2015    3        3    22  15    6.1002   471.9    6.351      37.205
2015    3        3    22  21    6.1042   471.9    6.355      37.236
2015    3        3    22  26    6.1083   472.0    6.359      37.268
2015    3        3    22  31    6.1123   472.0    6.362      37.302
2015    3        3    22  37    6.1163   472.1    6.365      37.336
2015    3        3    22  42    6.1203   472.1    6.369      37.370
2015    3        3    22  47    6.1242   472.2    6.372      37.405
2015    3        3    22  52    6.1282   472.2    6.374      37.440
2015    3        3    22  58    6.1321   472.3    6.377      37.475
2015    3        3    23   3    6.1360   472.3    6.379      37.511
2015    3        3    23   8    6.1398   472.4    6.382      37.547
2015    3        3    23  14    6.1437   472.5    6.383      37.583
2015    3        3    23  19    6.1475   472.5    6.385      37.618
2015    3        3    23  24    6.1513   472.6    6.387      37.652
2015    3        3    23  30    6.1551   472.6    6.388      37.686
2015    3        3    23  35    6.1588   472.7    6.389      37.719
2015    3        3    23  40    6.1626   472.7    6.390      37.752
2015    3        3    23  45    6.1664   472.8    6.391      37.783
2015    3        3    23  51    6.1701   472.8    6.392      37.815
2015    3        3    23  56    6.1737   472.9    6.392      37.845
2015    3        4     0   1    6.1775   473.0    6.393      37.875
2015    3        4     0   7    6.1812   473.0    6.393      37.905
2015    3        4     0  12    6.1848   473.1    6.393      37.934
2015    3        4     0  17    6.1886   473.1    6.393      37.963
2015    3        4     0  23    6.1922   473.2    6.393      37.991
2015    3        4     0  28    6.1959   473.2    6.393      38.018
2015    3        4     0  33    6.1996   473.3    6.393      38.046
2015    3        4     0  39    6.2033   473.3    6.393      38.072
2015    3        4     0  44    6.2070   473.4    6.393      38.099
2015    3        4     0  49    6.2106   473.4    6.392      38.125
2015    3        4     0  54    6.2143   473.5    6.392      38.151
2015    3        4     1   0    6.2180   473.5    6.392      38.177
2015    3        4     1   5    6.2217   473.6    6.391      38.202
2015    3        4     1  10    6.2253   473.6    6.391      38.227
2015    3        4     1  16    6.2290   473.7    6.390      38.252
2015    3        4     1  21    6.2326   473.7    6.389      38.277
2015    3        4     1  26    6.2363   473.8    6.389      38.301
2015    3        4     1  32    6.2400   473.9    6.388      38.326
2015    3        4     1  37    6.2437   473.9    6.388      38.350
2015    3        4     1  42    6.2474   474.0    6.387      38.374
2015    3        4     1  47    6.2511   474.0    6.386      38.398
