year    month   day   hour  minute  B_enl V_enl   n_enl       T_enl
[year] [month] [day] [hour][minute] [nT]  [km/s]  [cm-3]      [kK]
2015    3        2     0   2    4.1754   553.7    3.031      42.247
2015    3        2     0   8    4.1744   553.3    3.033      42.195
2015    3        2     0  13    4.1734   552.9    3.036      42.144
2015    3        2     0  19    4.1725   552.6    3.039      42.093
2015    3        2     0  24    4.1716   552.2    3.041      42.042
2015    3        2     0  30    4.1707   551.9    3.044      41.993
2015    3        2     0  35    4.1699   551.5    3.047      41.944
2015    3        2     0  41    4.1690   551.1    3.050      41.895
2015    3        2     0  46    4.1682   550.8    3.053      41.848
2015    3        2     0  51    4.1674   550.4    3.056      41.800
2015    3        2     0  57    4.1667   550.0    3.060      41.754
2015    3        2     1   2    4.1659   549.7    3.063      41.708
2015    3        2     1   8    4.1651   549.3    3.066      41.662
2015    3        2     1  13    4.1645   549.0    3.069      41.617
2015    3        2     1  19    4.1637   548.6    3.073      41.572
2015    3        2     1  24    4.1631   548.2    3.076      41.528
2015    3        2     1  30    4.1623   547.9    3.080      41.485
2015    3        2     1  35    4.1617   547.5    3.083      41.441
2015    3        2     1  40    4.1610   547.1    3.087      41.399
2015    3        2     1  46    4.1604   546.8    3.090      41.356
2015    3        2     1  51    4.1598   546.4    3.094      41.314
2015    3        2     1  57    4.1592   546.0    3.097      41.273
2015    3        2     2   2    4.1586   545.7    3.101      41.231
2015    3        2     2   8    4.1580   545.3    3.104      41.190
2015    3        2     2  13    4.1575   544.9    3.108      41.149
2015    3        2     2  19    4.1570   544.6    3.111      41.108
2015    3        2     2  24    4.1565   544.2    3.115      41.067
2015    3        2     2  29    4.1560   543.8    3.118      41.026
2015    3        2     2  35    4.1556   543.5    3.122      40.985
2015    3        2     2  40    4.1551   543.1    3.126      40.944
2015    3        2     2  46    4.1547   542.7    3.129      40.903
2015    3        2     2  51    4.1544   542.3    3.133      40.861
2015    3        2     2  57    4.1541   542.0    3.136      40.819
2015    3        2     3   2    4.1536   541.6    3.140      40.777
2015    3        2     3   8    4.1535   541.2    3.144      40.735
2015    3        2     3  13    4.1532   540.9    3.147      40.693
2015    3        2     3  18    4.1528   540.5    3.151      40.650
2015    3        2     3  24    4.1527   540.1    3.155      40.607
2015    3        2     3  29    4.1523   539.8    3.158      40.564
2015    3        2     3  35    4.1523   539.4    3.162      40.521
2015    3        2     3  40    4.1520   539.0    3.166      40.477
2015    3        2     3  46    4.1518   538.7    3.169      40.433
2015    3        2     3  51    4.1516   538.3    3.173      40.388
2015    3        2     3  57    4.1515   537.9    3.177      40.343
2015    3        2     4   2    4.1514   537.6    3.180      40.298
2015    3        2     4   8    4.1514   537.2    3.184      40.252
2015    3        2     4  13    4.1512   536.8    3.188      40.205
2015    3        2     4  18    4.1511   536.5    3.191      40.158
2015    3        2     4  24    4.1511   536.1    3.195      40.111
2015    3        2     4  29    4.1510   535.7    3.198      40.063
2015    3        2     4  35    4.1512   535.4    3.202      40.015
2015    3        2     4  40    4.1512   535.0    3.206      39.966
2015    3        2     4  46    4.1512   534.6    3.209      39.917
2015    3        2     4  51    4.1510   534.3    3.213      39.867
2015    3        2     4  57    4.1511   533.9    3.217      39.817
2015    3        2     5   2    4.1512   533.5    3.220      39.767
2015    3        2     5   7    4.1514   533.1    3.224      39.716
2015    3        2     5  13    4.1513   532.8    3.227      39.666
2015    3        2     5  18    4.1514   532.4    3.231      39.615
2015    3        2     5  24    4.1516   532.0    3.235      39.563
2015    3        2     5  29    4.1517   531.7    3.238      39.512
2015    3        2     5  35    4.1519   531.3    3.242      39.461
2015    3        2     5  40    4.1521   530.9    3.246      39.409
2015    3        2     5  46    4.1523   530.6    3.249      39.357
2015    3        2     5  51    4.1526   530.2    3.253      39.306
2015    3        2     5  56    4.1528   529.8    3.257      39.254
2015    3        2     6   2    4.1533   529.5    3.261      39.202
2015    3        2     6   7    4.1535   529.1    3.265      39.150
2015    3        2     6  13    4.1538   528.7    3.268      39.099
2015    3        2     6  18    4.1542   528.4    3.272      39.047
2015    3        2     6  24    4.1547   528.0    3.276      38.995
2015    3        2     6  29    4.1551   527.6    3.280      38.944
2015    3        2     6  35    4.1556   527.3    3.284      38.893
2015    3        2     6  40    4.1561   526.9    3.288      38.842
2015    3        2     6  45    4.1566   526.5    3.292      38.791
2015    3        2     6  51    4.1570   526.2    3.297      38.740
2015    3        2     6  56    4.1575   525.8    3.301      38.690
2015    3        2     7   2    4.1583   525.4    3.305      38.641
2015    3        2     7   7    4.1587   525.1    3.310      38.591
2015    3        2     7  13    4.1594   524.7    3.314      38.542
2015    3        2     7  18    4.1601   524.3    3.319      38.493
2015    3        2     7  24    4.1608   524.0    3.323      38.445
2015    3        2     7  29    4.1617   523.6    3.328      38.397
2015    3        2     7  34    4.1623   523.2    3.333      38.350
2015    3        2     7  40    4.1631   522.9    3.338      38.303
2015    3        2     7  45    4.1642   522.5    3.342      38.257
2015    3        2     7  51    4.1649   522.1    3.347      38.211
2015    3        2     7  56    4.1658   521.8    3.352      38.166
2015    3        2     8   2    4.1669   521.4    3.358      38.121
2015    3        2     8   7    4.1677   521.1    3.363      38.077
2015    3        2     8  13    4.1687   520.7    3.368      38.033
2015    3        2     8  18    4.1697   520.3    3.374      37.990
2015    3        2     8  24    4.1708   520.0    3.379      37.947
2015    3        2     8  29    4.1720   519.6    3.385      37.905
2015    3        2     8  34    4.1730   519.3    3.390      37.863
2015    3        2     8  40    4.1741   518.9    3.396      37.822
2015    3        2     8  45    4.1753   518.6    3.402      37.782
2015    3        2     8  51    4.1767   518.2    3.408      37.742
2015    3        2     8  56    4.1779   517.9    3.414      37.702
2015    3        2     9   2    4.1790   517.5    3.420      37.663
2015    3        2     9   7    4.1805   517.2    3.426      37.625
2015    3        2     9  13    4.1817   516.8    3.432      37.587
2015    3        2     9  18    4.1832   516.5    3.438      37.550
2015    3        2     9  23    4.1844   516.1    3.445      37.513
2015    3        2     9  29    4.1860   515.8    3.451      37.477
2015    3        2     9  34    4.1873   515.4    3.458      37.441
2015    3        2     9  40    4.1889   515.1    3.464      37.405
2015    3        2     9  45    4.1905   514.8    3.471      37.370
2015    3        2     9  51    4.1918   514.4    3.478      37.336
2015    3        2     9  56    4.1934   514.1    3.485      37.302
2015    3        2    10   2    4.1950   513.7    3.492      37.269
2015    3        2    10   7    4.1968   513.4    3.499      37.236
2015    3        2    10  12    4.1982   513.1    3.506      37.203
2015    3        2    10  18    4.2000   512.7    3.513      37.171
2015    3        2    10  23    4.2017   512.4    3.521      37.139
2015    3        2    10  29    4.2036   512.1    3.528      37.108
2015    3        2    10  34    4.2052   511.7    3.535      37.077
2015    3        2    10  40    4.2070   511.4    3.543      37.046
2015    3        2    10  45    4.2089   511.1    3.550      37.016
2015    3        2    10  51    4.2107   510.8    3.558      36.986
2015    3        2    10  56    4.2129   510.4    3.566      36.956
2015    3        2    11   1    4.2146   510.1    3.574      36.926
2015    3        2    11   7    4.2165   509.8    3.581      36.896
2015    3        2    11  12    4.2185   509.5    3.589      36.866
2015    3        2    11  18    4.2207   509.2    3.597      36.836
2015    3        2    11  23    4.2225   508.9    3.605      36.806
2015    3        2    11  29    4.2245   508.6    3.612      36.776
2015    3        2    11  34    4.2268   508.2    3.620      36.745
2015    3        2    11  40    4.2288   507.9    3.628      36.715
2015    3        2    11  45    4.2309   507.6    3.636      36.684
2015    3        2    11  50    4.2330   507.3    3.644      36.654
2015    3        2    11  56    4.2352   507.0    3.651      36.623
2015    3        2    12   1    4.2371   506.7    3.659      36.592
2015    3        2    12   7    4.2395   506.4    3.667      36.561
2015    3        2    12  12    4.2414   506.1    3.675      36.530
2015    3        2    12  18    4.2436   505.8    3.682      36.499
2015    3        2    12  23    4.2459   505.5    3.690      36.468
2015    3        2    12  29    4.2481   505.2    3.697      36.437
2015    3        2    12  34    4.2507   504.9    3.705      36.406
2015    3        2    12  40    4.2530   504.6    3.712      36.375
2015    3        2    12  45    4.2553   504.3    3.720      36.344
2015    3        2    12  50    4.2577   504.0    3.727      36.313
2015    3        2    12  56    4.2598   503.7    3.735      36.282
2015    3        2    13   1    4.2622   503.4    3.742      36.251
2015    3        2    13   7    4.2646   503.1    3.750      36.220
2015    3        2    13  12    4.2671   502.8    3.757      36.189
2015    3        2    13  18    4.2698   502.5    3.764      36.158
2015    3        2    13  23    4.2721   502.2    3.772      36.127
2015    3        2    13  29    4.2747   501.9    3.779      36.096
2015    3        2    13  34    4.2772   501.7    3.786      36.065
2015    3        2    13  39    4.2798   501.4    3.794      36.034
2015    3        2    13  45    4.2825   501.1    3.801      36.003
2015    3        2    13  50    4.2851   500.8    3.808      35.973
2015    3        2    13  56    4.2878   500.5    3.816      35.942
2015    3        2    14   1    4.2905   500.3    3.823      35.911
2015    3        2    14   7    4.2932   500.0    3.831      35.881
2015    3        2    14  12    4.2960   499.7    3.838      35.851
2015    3        2    14  18    4.2988   499.4    3.845      35.821
2015    3        2    14  23    4.3018   499.2    3.853      35.791
2015    3        2    14  28    4.3044   498.9    3.860      35.761
2015    3        2    14  34    4.3072   498.6    3.868      35.732
2015    3        2    14  39    4.3104   498.3    3.876      35.703
2015    3        2    14  45    4.3130   498.1    3.883      35.674
2015    3        2    14  50    4.3162   497.8    3.891      35.645
2015    3        2    14  56    4.3191   497.5    3.899      35.617
2015    3        2    15   1    4.3218   497.3    3.906      35.589
2015    3        2    15   7    4.3250   497.0    3.914      35.562
2015    3        2    15  12    4.3280   496.8    3.922      35.535
2015    3        2    15  17    4.3309   496.5    3.930      35.508
2015    3        2    15  23    4.3340   496.3    3.938      35.481
2015    3        2    15  28    4.3368   496.0    3.946      35.455
2015    3        2    15  34    4.3400   495.7    3.954      35.429
2015    3        2    15  39    4.3428   495.5    3.962      35.404
2015    3        2    15  45    4.3461   495.2    3.970      35.379
2015    3        2    15  50    4.3490   495.0    3.978      35.354
2015    3        2    15  56    4.3521   494.7    3.987      35.330
2015    3        2    16   1    4.3552   494.5    3.995      35.306
2015    3        2    16   6    4.3583   494.3    4.003      35.282
2015    3        2    16  12    4.3615   494.0    4.012      35.259
2015    3        2    16  17    4.3648   493.8    4.020      35.236
2015    3        2    16  23    4.3678   493.5    4.029      35.214
2015    3        2    16  28    4.3712   493.3    4.037      35.192
2015    3        2    16  34    4.3744   493.1    4.046      35.171
2015    3        2    16  39    4.3774   492.8    4.055      35.150
2015    3        2    16  45    4.3808   492.6    4.064      35.129
2015    3        2    16  50    4.3841   492.4    4.072      35.109
2015    3        2    16  56    4.3873   492.1    4.081      35.089
2015    3        2    17   1    4.3906   491.9    4.090      35.070
2015    3        2    17   6    4.3939   491.7    4.099      35.051
2015    3        2    17  12    4.3971   491.4    4.109      35.032
2015    3        2    17  17    4.4004   491.2    4.118      35.014
2015    3        2    17  23    4.4039   491.0    4.127      34.997
2015    3        2    17  28    4.4071   490.8    4.136      34.980
2015    3        2    17  34    4.4106   490.5    4.146      34.963
2015    3        2    17  39    4.4140   490.3    4.155      34.947
2015    3        2    17  45    4.4176   490.1    4.165      34.931
2015    3        2    17  50    4.4211   489.9    4.174      34.916
2015    3        2    17  55    4.4246   489.7    4.184      34.901
2015    3        2    18   1    4.4281   489.5    4.194      34.887
2015    3        2    18   6    4.4315   489.3    4.204      34.873
2015    3        2    18  12    4.4351   489.1    4.213      34.859
2015    3        2    18  17    4.4389   488.9    4.223      34.846
2015    3        2    18  23    4.4423   488.7    4.233      34.833
2015    3        2    18  28    4.4461   488.5    4.243      34.820
2015    3        2    18  34    4.4496   488.3    4.253      34.807
2015    3        2    18  39    4.4533   488.1    4.263      34.795
2015    3        2    18  44    4.4570   487.9    4.273      34.783
2015    3        2    18  50    4.4607   487.7    4.283      34.771
2015    3        2    18  55    4.4646   487.5    4.292      34.760
2015    3        2    19   1    4.4681   487.3    4.302      34.748
2015    3        2    19   6    4.4720   487.1    4.312      34.737
2015    3        2    19  12    4.4757   486.9    4.322      34.726
2015    3        2    19  17    4.4796   486.7    4.332      34.715
2015    3        2    19  23    4.4832   486.6    4.342      34.704
2015    3        2    19  28    4.4870   486.4    4.351      34.693
2015    3        2    19  33    4.4910   486.2    4.361      34.683
2015    3        2    19  39    4.4947   486.0    4.371      34.672
2015    3        2    19  44    4.4987   485.8    4.381      34.662
2015    3        2    19  50    4.5025   485.6    4.390      34.651
2015    3        2    19  55    4.5064   485.5    4.400      34.641
2015    3        2    20   1    4.5102   485.3    4.409      34.631
2015    3        2    20   6    4.5142   485.1    4.419      34.621
2015    3        2    20  12    4.5181   485.0    4.428      34.611
2015    3        2    20  17    4.5220   484.8    4.438      34.601
2015    3        2    20  23    4.5258   484.6    4.447      34.591
2015    3        2    20  28    4.5298   484.4    4.457      34.581
2015    3        2    20  33    4.5338   484.3    4.466      34.571
2015    3        2    20  39    4.5377   484.1    4.476      34.561
2015    3        2    20  44    4.5417   484.0    4.485      34.551
2015    3        2    20  50    4.5457   483.8    4.495      34.541
2015    3        2    20  55    4.5496   483.6    4.504      34.532
2015    3        2    21   1    4.5537   483.5    4.513      34.522
2015    3        2    21   6    4.5578   483.3    4.523      34.513
2015    3        2    21  12    4.5617   483.2    4.533      34.504
2015    3        2    21  17    4.5659   483.0    4.542      34.495
2015    3        2    21  22    4.5699   482.8    4.552      34.487
2015    3        2    21  28    4.5740   482.7    4.561      34.479
2015    3        2    21  33    4.5779   482.5    4.571      34.471
2015    3        2    21  39    4.5820   482.4    4.580      34.464
2015    3        2    21  44    4.5860   482.3    4.590      34.458
2015    3        2    21  50    4.5900   482.1    4.599      34.452
2015    3        2    21  55    4.5942   482.0    4.609      34.447
2015    3        2    22   1    4.5983   481.8    4.618      34.442
2015    3        2    22   6    4.6023   481.7    4.628      34.437
2015    3        2    22  11    4.6063   481.6    4.637      34.433
2015    3        2    22  17    4.6103   481.4    4.646      34.430
2015    3        2    22  22    4.6144   481.3    4.656      34.427
2015    3        2    22  28    4.6184   481.2    4.665      34.424
2015    3        2    22  33    4.6224   481.1    4.674      34.421
2015    3        2    22  39    4.6265   480.9    4.683      34.419
2015    3        2    22  44    4.6305   480.8    4.693      34.417
2015    3        2    22  50    4.6346   480.7    4.702      34.415
2015    3        2    22  55    4.6386   480.6    4.711      34.413
2015    3        2    23   0    4.6426   480.4    4.720      34.411
2015    3        2    23   6    4.6466   480.3    4.729      34.410
2015    3        2    23  11    4.6507   480.2    4.738      34.408
2015    3        2    23  17    4.6547   480.1    4.747      34.407
2015    3        2    23  22    4.6587   480.0    4.756      34.406
2015    3        2    23  28    4.6627   479.9    4.765      34.404
2015    3        2    23  33    4.6668   479.8    4.773      34.403
2015    3        2    23  39    4.6708   479.6    4.782      34.402
2015    3        2    23  44    4.6749   479.5    4.791      34.401
2015    3        2    23  49    4.6789   479.4    4.800      34.400
2015    3        2    23  55    4.6830   479.3    4.808      34.399
2015    3        3     0   0    4.6871   479.2    4.817      34.399
2015    3        3     0   6    4.6912   479.1    4.826      34.398
2015    3        3     0  11    4.6952   479.0    4.834      34.397
2015    3        3     0  17    4.6993   478.9    4.843      34.396
2015    3        3     0  22    4.7034   478.8    4.851      34.395
2015    3        3     0  28    4.7075   478.7    4.860      34.395
2015    3        3     0  33    4.7117   478.6    4.868      34.394
2015    3        3     0  39    4.7158   478.5    4.877      34.393
2015    3        3     0  44    4.7199   478.4    4.885      34.393
2015    3        3     0  49    4.7241   478.3    4.894      34.392
2015    3        3     0  55    4.7283   478.2    4.902      34.391
2015    3        3     1   0    4.7325   478.1    4.910      34.391
2015    3        3     1   6    4.7367   478.0    4.919      34.390
2015    3        3     1  11    4.7409   477.9    4.927      34.390
2015    3        3     1  17    4.7451   477.8    4.935      34.389
2015    3        3     1  22    4.7493   477.7    4.944      34.389
2015    3        3     1  28    4.7536   477.6    4.952      34.388
2015    3        3     1  33    4.7579   477.5    4.960      34.388
2015    3        3     1  38    4.7622   477.4    4.968      34.388
2015    3        3     1  44    4.7665   477.3    4.977      34.388
2015    3        3     1  49    4.7709   477.2    4.985      34.388
2015    3        3     1  55    4.7752   477.1    4.993      34.388
2015    3        3     2   0    4.7796   477.0    5.002      34.388
2015    3        3     2   6    4.7840   476.9    5.010      34.388
2015    3        3     2  11    4.7884   476.9    5.018      34.389
2015    3        3     2  17    4.7928   476.8    5.027      34.389
2015    3        3     2  22    4.7972   476.7    5.035      34.390
2015    3        3     2  27    4.8017   476.6    5.043      34.391
