year    month   day   hour  minute  B_enl V_enl   n_enl       T_enl
[year] [month] [day] [hour][minute] [nT]  [km/s]  [cm-3]      [kK]
2015    3       10     0   5    3.9313   580.6    3.027      54.320
2015    3       10     0  11    3.9294   580.3    3.027      54.276
2015    3       10     0  16    3.9275   580.1    3.028      54.231
2015    3       10     0  22    3.9258   579.9    3.028      54.186
2015    3       10     0  28    3.9240   579.7    3.028      54.141
2015    3       10     0  33    3.9222   579.4    3.029      54.095
2015    3       10     0  39    3.9204   579.2    3.029      54.050
2015    3       10     0  45    3.9186   579.0    3.029      54.004
2015    3       10     0  50    3.9168   578.7    3.030      53.957
2015    3       10     0  56    3.9150   578.5    3.030      53.911
2015    3       10     1   2    3.9132   578.3    3.031      53.865
2015    3       10     1   7    3.9115   578.0    3.031      53.818
2015    3       10     1  13    3.9097   577.8    3.031      53.772
2015    3       10     1  19    3.9079   577.5    3.032      53.726
2015    3       10     1  24    3.9063   577.3    3.032      53.679
2015    3       10     1  30    3.9046   577.1    3.033      53.633
2015    3       10     1  36    3.9029   576.8    3.034      53.587
2015    3       10     1  41    3.9012   576.6    3.034      53.542
2015    3       10     1  47    3.8995   576.3    3.035      53.496
2015    3       10     1  53    3.8978   576.1    3.036      53.451
2015    3       10     1  58    3.8962   575.9    3.037      53.406
2015    3       10     2   4    3.8946   575.6    3.038      53.361
2015    3       10     2  10    3.8929   575.4    3.038      53.316
2015    3       10     2  15    3.8914   575.1    3.039      53.272
2015    3       10     2  21    3.8897   574.9    3.041      53.227
2015    3       10     2  27    3.8881   574.6    3.042      53.183
2015    3       10     2  32    3.8866   574.4    3.043      53.140
2015    3       10     2  38    3.8849   574.2    3.044      53.096
2015    3       10     2  44    3.8834   573.9    3.045      53.053
2015    3       10     2  49    3.8818   573.7    3.047      53.009
2015    3       10     2  55    3.8802   573.4    3.048      52.966
2015    3       10     3   1    3.8787   573.2    3.049      52.923
2015    3       10     3   6    3.8771   572.9    3.051      52.881
2015    3       10     3  12    3.8756   572.7    3.052      52.838
2015    3       10     3  18    3.8740   572.4    3.054      52.796
2015    3       10     3  23    3.8725   572.2    3.055      52.753
2015    3       10     3  29    3.8709   571.9    3.057      52.711
2015    3       10     3  35    3.8694   571.7    3.058      52.669
2015    3       10     3  40    3.8679   571.4    3.060      52.627
2015    3       10     3  46    3.8663   571.2    3.062      52.586
2015    3       10     3  52    3.8648   570.9    3.063      52.544
2015    3       10     3  57    3.8633   570.7    3.065      52.503
2015    3       10     4   3    3.8618   570.4    3.067      52.462
2015    3       10     4   9    3.8603   570.2    3.069      52.422
2015    3       10     4  14    3.8589   569.9    3.070      52.382
2015    3       10     4  20    3.8574   569.7    3.072      52.342
2015    3       10     4  26    3.8559   569.4    3.074      52.302
2015    3       10     4  31    3.8545   569.2    3.076      52.263
2015    3       10     4  37    3.8531   568.9    3.078      52.224
2015    3       10     4  43    3.8516   568.6    3.080      52.186
2015    3       10     4  48    3.8502   568.4    3.082      52.148
2015    3       10     4  54    3.8488   568.1    3.084      52.110
2015    3       10     5   0    3.8474   567.9    3.086      52.073
2015    3       10     5   5    3.8460   567.6    3.088      52.035
2015    3       10     5  11    3.8447   567.4    3.090      51.998
2015    3       10     5  17    3.8433   567.1    3.092      51.962
2015    3       10     5  22    3.8419   566.9    3.094      51.926
2015    3       10     5  28    3.8406   566.6    3.096      51.890
2015    3       10     5  34    3.8393   566.4    3.098      51.854
2015    3       10     5  39    3.8379   566.1    3.100      51.819
2015    3       10     5  45    3.8366   565.8    3.102      51.783
2015    3       10     5  51    3.8353   565.6    3.105      51.748
2015    3       10     5  56    3.8340   565.3    3.107      51.714
2015    3       10     6   2    3.8327   565.1    3.109      51.679
2015    3       10     6   8    3.8313   564.8    3.111      51.645
2015    3       10     6  13    3.8300   564.6    3.113      51.611
2015    3       10     6  19    3.8287   564.3    3.116      51.577
2015    3       10     6  25    3.8274   564.1    3.118      51.543
2015    3       10     6  30    3.8261   563.8    3.120      51.509
2015    3       10     6  36    3.8248   563.6    3.122      51.475
2015    3       10     6  42    3.8235   563.3    3.124      51.441
2015    3       10     6  47    3.8222   563.1    3.126      51.407
2015    3       10     6  53    3.8209   562.9    3.129      51.372
2015    3       10     6  59    3.8196   562.6    3.131      51.338
2015    3       10     7   4    3.8183   562.4    3.133      51.304
2015    3       10     7  10    3.8170   562.1    3.135      51.270
2015    3       10     7  16    3.8157   561.9    3.137      51.235
2015    3       10     7  21    3.8144   561.6    3.139      51.200
2015    3       10     7  27    3.8131   561.4    3.141      51.166
2015    3       10     7  33    3.8119   561.1    3.143      51.130
2015    3       10     7  38    3.8105   560.9    3.145      51.095
2015    3       10     7  44    3.8093   560.6    3.147      51.060
2015    3       10     7  50    3.8080   560.4    3.149      51.024
2015    3       10     7  55    3.8067   560.1    3.151      50.988
2015    3       10     8   1    3.8054   559.9    3.153      50.952
2015    3       10     8   7    3.8042   559.6    3.155      50.915
2015    3       10     8  12    3.8029   559.4    3.157      50.878
2015    3       10     8  18    3.8016   559.1    3.159      50.841
2015    3       10     8  24    3.8003   558.9    3.160      50.803
2015    3       10     8  29    3.7991   558.6    3.162      50.765
2015    3       10     8  35    3.7977   558.4    3.164      50.727
2015    3       10     8  41    3.7965   558.1    3.166      50.688
2015    3       10     8  46    3.7952   557.9    3.167      50.650
2015    3       10     8  52    3.7940   557.6    3.169      50.610
2015    3       10     8  58    3.7927   557.4    3.171      50.571
2015    3       10     9   3    3.7914   557.1    3.172      50.531
2015    3       10     9   9    3.7902   556.9    3.174      50.491
2015    3       10     9  15    3.7889   556.6    3.175      50.451
2015    3       10     9  20    3.7877   556.4    3.177      50.410
2015    3       10     9  26    3.7865   556.1    3.179      50.370
2015    3       10     9  32    3.7853   555.8    3.180      50.329
2015    3       10     9  37    3.7841   555.6    3.182      50.288
2015    3       10     9  43    3.7829   555.3    3.183      50.247
2015    3       10     9  49    3.7817   555.1    3.185      50.205
2015    3       10     9  54    3.7805   554.8    3.187      50.164
2015    3       10    10   0    3.7793   554.6    3.188      50.123
2015    3       10    10   6    3.7781   554.3    3.190      50.081
2015    3       10    10  11    3.7770   554.0    3.191      50.039
2015    3       10    10  17    3.7758   553.8    3.193      49.998
2015    3       10    10  23    3.7748   553.5    3.195      49.957
2015    3       10    10  28    3.7736   553.3    3.197      49.915
2015    3       10    10  34    3.7726   553.0    3.198      49.874
2015    3       10    10  40    3.7715   552.8    3.200      49.833
2015    3       10    10  45    3.7704   552.5    3.202      49.792
2015    3       10    10  51    3.7693   552.2    3.204      49.752
2015    3       10    10  57    3.7683   552.0    3.205      49.712
2015    3       10    11   2    3.7672   551.7    3.207      49.671
2015    3       10    11   8    3.7662   551.5    3.209      49.632
2015    3       10    11  13    3.7651   551.2    3.211      49.592
2015    3       10    11  19    3.7642   551.0    3.213      49.553
2015    3       10    11  25    3.7631   550.7    3.215      49.514
2015    3       10    11  30    3.7622   550.4    3.217      49.475
2015    3       10    11  36    3.7612   550.2    3.219      49.436
2015    3       10    11  42    3.7603   549.9    3.221      49.398
2015    3       10    11  47    3.7593   549.7    3.223      49.360
2015    3       10    11  53    3.7584   549.4    3.226      49.322
2015    3       10    11  59    3.7574   549.1    3.228      49.285
2015    3       10    12   4    3.7565   548.9    3.230      49.248
2015    3       10    12  10    3.7555   548.6    3.232      49.211
2015    3       10    12  16    3.7546   548.4    3.234      49.174
2015    3       10    12  21    3.7537   548.1    3.237      49.137
2015    3       10    12  27    3.7528   547.9    3.239      49.100
2015    3       10    12  33    3.7519   547.6    3.241      49.064
2015    3       10    12  38    3.7510   547.4    3.244      49.028
2015    3       10    12  44    3.7501   547.1    3.246      48.992
2015    3       10    12  50    3.7492   546.8    3.248      48.956
2015    3       10    12  55    3.7483   546.6    3.251      48.920
2015    3       10    13   1    3.7473   546.3    3.253      48.884
2015    3       10    13   7    3.7465   546.1    3.256      48.848
2015    3       10    13  12    3.7456   545.8    3.258      48.812
2015    3       10    13  18    3.7447   545.6    3.261      48.776
2015    3       10    13  24    3.7438   545.3    3.263      48.741
2015    3       10    13  29    3.7429   545.0    3.265      48.705
2015    3       10    13  35    3.7420   544.8    3.268      48.669
2015    3       10    13  41    3.7412   544.5    3.270      48.634
2015    3       10    13  46    3.7403   544.3    3.273      48.598
2015    3       10    13  52    3.7394   544.0    3.276      48.563
2015    3       10    13  58    3.7385   543.8    3.278      48.527
2015    3       10    14   3    3.7377   543.5    3.281      48.492
2015    3       10    14   9    3.7368   543.3    3.283      48.456
2015    3       10    14  15    3.7360   543.0    3.286      48.420
2015    3       10    14  20    3.7351   542.8    3.289      48.385
2015    3       10    14  26    3.7343   542.5    3.291      48.349
2015    3       10    14  32    3.7335   542.2    3.294      48.314
2015    3       10    14  37    3.7326   542.0    3.296      48.278
2015    3       10    14  43    3.7318   541.7    3.299      48.243
2015    3       10    14  49    3.7309   541.5    3.302      48.207
2015    3       10    14  54    3.7302   541.2    3.304      48.172
2015    3       10    15   0    3.7293   541.0    3.307      48.136
2015    3       10    15   6    3.7285   540.7    3.310      48.100
2015    3       10    15  11    3.7277   540.5    3.312      48.065
2015    3       10    15  17    3.7269   540.2    3.315      48.029
2015    3       10    15  23    3.7261   540.0    3.318      47.993
2015    3       10    15  28    3.7253   539.7    3.320      47.957
2015    3       10    15  34    3.7244   539.5    3.323      47.921
2015    3       10    15  40    3.7237   539.2    3.326      47.885
2015    3       10    15  45    3.7229   539.0    3.328      47.849
2015    3       10    15  51    3.7220   538.7    3.331      47.813
2015    3       10    15  57    3.7213   538.5    3.333      47.778
2015    3       10    16   2    3.7205   538.2    3.336      47.742
2015    3       10    16   8    3.7197   538.0    3.339      47.706
2015    3       10    16  14    3.7190   537.7    3.341      47.670
2015    3       10    16  19    3.7182   537.4    3.344      47.634
2015    3       10    16  25    3.7175   537.2    3.346      47.599
2015    3       10    16  31    3.7167   536.9    3.349      47.563
2015    3       10    16  36    3.7160   536.7    3.351      47.528
2015    3       10    16  42    3.7152   536.4    3.354      47.492
2015    3       10    16  48    3.7146   536.2    3.356      47.457
2015    3       10    16  53    3.7138   535.9    3.358      47.422
2015    3       10    16  59    3.7131   535.7    3.361      47.387
2015    3       10    17   5    3.7124   535.4    3.363      47.352
2015    3       10    17  10    3.7117   535.2    3.366      47.317
2015    3       10    17  16    3.7111   534.9    3.368      47.282
2015    3       10    17  22    3.7104   534.7    3.370      47.247
2015    3       10    17  27    3.7096   534.4    3.373      47.212
2015    3       10    17  33    3.7090   534.2    3.375      47.177
2015    3       10    17  39    3.7083   533.9    3.377      47.143
2015    3       10    17  44    3.7077   533.7    3.380      47.108
2015    3       10    17  50    3.7070   533.4    3.382      47.074
2015    3       10    17  56    3.7064   533.2    3.384      47.039
2015    3       10    18   1    3.7057   532.9    3.387      47.004
2015    3       10    18   7    3.7051   532.7    3.389      46.970
2015    3       10    18  13    3.7044   532.4    3.391      46.935
2015    3       10    18  18    3.7038   532.2    3.393      46.901
2015    3       10    18  24    3.7031   531.9    3.396      46.866
2015    3       10    18  30    3.7025   531.7    3.398      46.832
2015    3       10    18  35    3.7019   531.4    3.400      46.798
2015    3       10    18  41    3.7012   531.2    3.403      46.763
2015    3       10    18  47    3.7006   530.9    3.405      46.729
2015    3       10    18  52    3.7000   530.7    3.407      46.695
2015    3       10    18  58    3.6994   530.4    3.409      46.660
2015    3       10    19   4    3.6988   530.2    3.412      46.626
2015    3       10    19   9    3.6982   529.9    3.414      46.592
2015    3       10    19  15    3.6976   529.7    3.416      46.558
2015    3       10    19  21    3.6970   529.4    3.419      46.524
2015    3       10    19  26    3.6964   529.2    3.421      46.490
2015    3       10    19  32    3.6958   528.9    3.423      46.457
2015    3       10    19  38    3.6953   528.7    3.426      46.423
2015    3       10    19  43    3.6947   528.5    3.428      46.389
2015    3       10    19  49    3.6941   528.2    3.431      46.356
2015    3       10    19  55    3.6936   528.0    3.433      46.323
2015    3       10    20   0    3.6930   527.7    3.435      46.289
2015    3       10    20   6    3.6925   527.5    3.438      46.256
2015    3       10    20  12    3.6919   527.2    3.440      46.223
2015    3       10    20  17    3.6914   527.0    3.443      46.190
2015    3       10    20  23    3.6908   526.7    3.445      46.157
2015    3       10    20  29    3.6903   526.5    3.448      46.125
2015    3       10    20  34    3.6898   526.3    3.451      46.092
2015    3       10    20  40    3.6893   526.0    3.453      46.060
2015    3       10    20  46    3.6887   525.8    3.456      46.027
2015    3       10    20  51    3.6882   525.5    3.458      45.995
2015    3       10    20  57    3.6877   525.3    3.461      45.962
2015    3       10    21   3    3.6872   525.0    3.464      45.930
2015    3       10    21   8    3.6867   524.8    3.466      45.898
2015    3       10    21  14    3.6862   524.5    3.469      45.865
2015    3       10    21  20    3.6857   524.3    3.472      45.833
2015    3       10    21  25    3.6852   524.1    3.474      45.801
2015    3       10    21  31    3.6847   523.8    3.477      45.769
2015    3       10    21  37    3.6842   523.6    3.480      45.736
2015    3       10    21  42    3.6837   523.3    3.482      45.704
2015    3       10    21  48    3.6832   523.1    3.485      45.672
2015    3       10    21  54    3.6827   522.9    3.488      45.640
2015    3       10    21  59    3.6823   522.6    3.490      45.607
2015    3       10    22   5    3.6818   522.4    3.493      45.575
2015    3       10    22  11    3.6813   522.1    3.496      45.543
2015    3       10    22  16    3.6808   521.9    3.499      45.510
2015    3       10    22  22    3.6803   521.6    3.501      45.478
2015    3       10    22  28    3.6799   521.4    3.504      45.445
2015    3       10    22  33    3.6794   521.2    3.507      45.413
2015    3       10    22  39    3.6790   520.9    3.509      45.381
2015    3       10    22  45    3.6785   520.7    3.512      45.348
2015    3       10    22  50    3.6780   520.4    3.515      45.316
2015    3       10    22  56    3.6776   520.2    3.517      45.283
2015    3       10    23   2    3.6772   519.9    3.520      45.251
2015    3       10    23   7    3.6767   519.7    3.523      45.219
2015    3       10    23  13    3.6763   519.5    3.525      45.186
2015    3       10    23  19    3.6759   519.2    3.528      45.154
2015    3       10    23  24    3.6754   519.0    3.531      45.122
2015    3       10    23  30    3.6750   518.7    3.533      45.090
2015    3       10    23  35    3.6746   518.5    3.536      45.058
2015    3       10    23  41    3.6742   518.3    3.539      45.026
2015    3       10    23  47    3.6738   518.0    3.541      44.995
2015    3       10    23  52    3.6734   517.8    3.544      44.963
2015    3       10    23  58    3.6730   517.5    3.547      44.931
2015    3       11     0   4    3.6726   517.3    3.550      44.900
2015    3       11     0   9    3.6723   517.0    3.552      44.869
2015    3       11     0  15    3.6719   516.8    3.555      44.838
2015    3       11     0  21    3.6715   516.6    3.558      44.807
2015    3       11     0  26    3.6712   516.3    3.560      44.777
2015    3       11     0  32    3.6709   516.1    3.563      44.746
2015    3       11     0  38    3.6705   515.8    3.566      44.716
2015    3       11     0  43    3.6702   515.6    3.569      44.686
2015    3       11     0  49    3.6698   515.4    3.571      44.656
2015    3       11     0  55    3.6695   515.1    3.574      44.626
2015    3       11     1   0    3.6692   514.9    3.577      44.596
2015    3       11     1   6    3.6689   514.6    3.580      44.567
2015    3       11     1  12    3.6686   514.4    3.582      44.538
2015    3       11     1  17    3.6683   514.2    3.585      44.508
2015    3       11     1  23    3.6679   513.9    3.588      44.479
2015    3       11     1  29    3.6677   513.7    3.591      44.450
2015    3       11     1  34    3.6673   513.4    3.594      44.421
2015    3       11     1  40    3.6671   513.2    3.596      44.392
2015    3       11     1  46    3.6668   513.0    3.599      44.364
2015    3       11     1  51    3.6665   512.7    3.602      44.335
2015    3       11     1  57    3.6662   512.5    3.605      44.307
2015    3       11     2   3    3.6660   512.3    3.608      44.278
2015    3       11     2   8    3.6657   512.0    3.611      44.250
2015    3       11     2  14    3.6654   511.8    3.613      44.222
2015    3       11     2  20    3.6651   511.6    3.616      44.194
2015    3       11     2  25    3.6648   511.3    3.619      44.165
2015    3       11     2  31    3.6646   511.1    3.622      44.137
2015    3       11     2  37    3.6643   510.8    3.625      44.109
2015    3       11     2  42    3.6641   510.6    3.627      44.081
2015    3       11     2  48    3.6638   510.4    3.630      44.054
2015    3       11     2  54    3.6636   510.1    3.633      44.026
2015    3       11     2  59    3.6633   509.9    3.636      43.998
2015    3       11     3   5    3.6631   509.7    3.639      43.971
2015    3       11     3  11    3.6629   509.4    3.642      43.943
2015    3       11     3  16    3.6626   509.2    3.645      43.915
2015    3       11     3  22    3.6624   509.0    3.647      43.888
2015    3       11     3  28    3.6622   508.7    3.650      43.861
2015    3       11     3  33    3.6620   508.5    3.653      43.834
