year    month   day   hour  minute  B_enl V_enl   n_enl       T_enl
[year] [month] [day] [hour][minute] [nT]  [km/s]  [cm-3]      [kK]
2015    3        5     0   0    6.9952   487.1    6.644      50.650
2015    3        5     0   6    6.9987   487.3    6.642      50.719
2015    3        5     0  11    7.0020   487.6    6.640      50.788
2015    3        5     0  17    7.0053   487.8    6.638      50.856
2015    3        5     0  22    7.0085   488.0    6.636      50.924
2015    3        5     0  27    7.0119   488.2    6.634      50.991
2015    3        5     0  33    7.0151   488.4    6.632      51.058
2015    3        5     0  38    7.0184   488.6    6.629      51.124
2015    3        5     0  43    7.0218   488.8    6.627      51.190
2015    3        5     0  49    7.0250   489.0    6.624      51.255
2015    3        5     0  54    7.0283   489.2    6.622      51.321
2015    3        5     0  59    7.0315   489.4    6.620      51.386
2015    3        5     1   5    7.0348   489.6    6.617      51.450
2015    3        5     1  10    7.0380   489.8    6.614      51.515
2015    3        5     1  16    7.0411   490.0    6.612      51.579
2015    3        5     1  21    7.0443   490.3    6.609      51.643
2015    3        5     1  26    7.0477   490.5    6.607      51.707
2015    3        5     1  32    7.0508   490.7    6.604      51.771
2015    3        5     1  37    7.0541   490.9    6.602      51.834
2015    3        5     1  42    7.0574   491.1    6.599      51.897
2015    3        5     1  48    7.0607   491.3    6.597      51.961
2015    3        5     1  53    7.0641   491.5    6.595      52.025
2015    3        5     1  59    7.0675   491.8    6.592      52.089
2015    3        5     2   4    7.0706   492.0    6.590      52.154
2015    3        5     2   9    7.0741   492.2    6.588      52.219
2015    3        5     2  15    7.0773   492.4    6.585      52.285
2015    3        5     2  20    7.0807   492.6    6.583      52.351
2015    3        5     2  25    7.0840   492.9    6.581      52.418
2015    3        5     2  31    7.0874   493.1    6.579      52.485
2015    3        5     2  36    7.0907   493.4    6.576      52.552
2015    3        5     2  41    7.0939   493.6    6.574      52.620
2015    3        5     2  47    7.0971   493.8    6.572      52.688
2015    3        5     2  52    7.1002   494.1    6.569      52.757
2015    3        5     2  58    7.1033   494.3    6.566      52.825
2015    3        5     3   3    7.1062   494.6    6.564      52.893
2015    3        5     3   8    7.1092   494.9    6.561      52.961
2015    3        5     3  14    7.1121   495.1    6.558      53.029
2015    3        5     3  19    7.1150   495.4    6.555      53.096
2015    3        5     3  24    7.1178   495.6    6.551      53.163
2015    3        5     3  30    7.1205   495.9    6.548      53.230
2015    3        5     3  35    7.1232   496.1    6.544      53.295
2015    3        5     3  41    7.1258   496.4    6.541      53.361
2015    3        5     3  46    7.1284   496.7    6.537      53.426
2015    3        5     3  51    7.1311   496.9    6.533      53.490
2015    3        5     3  57    7.1335   497.2    6.529      53.553
2015    3        5     4   2    7.1361   497.4    6.525      53.617
2015    3        5     4   7    7.1386   497.7    6.521      53.679
2015    3        5     4  13    7.1411   497.9    6.517      53.741
2015    3        5     4  18    7.1434   498.2    6.513      53.803
2015    3        5     4  23    7.1460   498.4    6.509      53.865
2015    3        5     4  29    7.1483   498.7    6.505      53.926
2015    3        5     4  34    7.1509   499.0    6.501      53.987
2015    3        5     4  40    7.1532   499.2    6.497      54.047
2015    3        5     4  45    7.1557   499.5    6.493      54.108
2015    3        5     4  50    7.1582   499.7    6.489      54.168
2015    3        5     4  56    7.1606   500.0    6.485      54.228
2015    3        5     5   1    7.1629   500.2    6.482      54.289
2015    3        5     5   6    7.1655   500.5    6.478      54.349
2015    3        5     5  12    7.1679   500.7    6.474      54.410
2015    3        5     5  17    7.1703   501.0    6.470      54.471
2015    3        5     5  23    7.1728   501.3    6.466      54.533
2015    3        5     5  28    7.1752   501.5    6.462      54.596
2015    3        5     5  33    7.1776   501.8    6.459      54.660
2015    3        5     5  39    7.1800   502.0    6.455      54.724
2015    3        5     5  44    7.1824   502.3    6.451      54.788
2015    3        5     5  49    7.1847   502.6    6.447      54.853
2015    3        5     5  55    7.1868   502.8    6.443      54.918
2015    3        5     6   0    7.1891   503.1    6.439      54.984
2015    3        5     6   6    7.1915   503.4    6.434      55.050
2015    3        5     6  11    7.1937   503.6    6.430      55.115
2015    3        5     6  16    7.1959   503.9    6.425      55.180
2015    3        5     6  22    7.1978   504.2    6.421      55.246
2015    3        5     6  27    7.2000   504.5    6.416      55.310
2015    3        5     6  32    7.2020   504.7    6.411      55.375
2015    3        5     6  38    7.2038   505.0    6.406      55.438
2015    3        5     6  43    7.2059   505.3    6.401      55.501
2015    3        5     6  48    7.2076   505.6    6.396      55.564
2015    3        5     6  54    7.2096   505.8    6.390      55.625
2015    3        5     6  59    7.2115   506.1    6.385      55.686
2015    3        5     7   5    7.2132   506.4    6.380      55.747
2015    3        5     7  10    7.2150   506.7    6.374      55.807
2015    3        5     7  15    7.2167   507.0    6.368      55.866
2015    3        5     7  21    7.2184   507.2    6.362      55.925
2015    3        5     7  26    7.2200   507.5    6.357      55.983
2015    3        5     7  31    7.2214   507.8    6.351      56.041
2015    3        5     7  37    7.2232   508.1    6.345      56.099
2015    3        5     7  42    7.2246   508.4    6.339      56.156
2015    3        5     7  48    7.2263   508.6    6.333      56.212
2015    3        5     7  53    7.2276   508.9    6.327      56.268
2015    3        5     7  58    7.2292   509.2    6.320      56.324
2015    3        5     8   4    7.2305   509.5    6.314      56.380
2015    3        5     8   9    7.2320   509.8    6.308      56.435
2015    3        5     8  14    7.2332   510.0    6.302      56.489
2015    3        5     8  20    7.2347   510.3    6.295      56.544
2015    3        5     8  25    7.2361   510.6    6.289      56.598
2015    3        5     8  30    7.2373   510.9    6.283      56.652
2015    3        5     8  36    7.2384   511.2    6.276      56.706
2015    3        5     8  41    7.2396   511.4    6.270      56.759
2015    3        5     8  47    7.2410   511.7    6.264      56.812
2015    3        5     8  52    7.2420   512.0    6.257      56.865
2015    3        5     8  57    7.2434   512.3    6.251      56.918
2015    3        5     9   3    7.2445   512.6    6.245      56.971
2015    3        5     9   8    7.2457   512.9    6.238      57.023
2015    3        5     9  13    7.2468   513.1    6.232      57.076
2015    3        5     9  19    7.2477   513.4    6.226      57.128
2015    3        5     9  24    7.2488   513.7    6.220      57.181
2015    3        5     9  30    7.2498   514.0    6.213      57.233
2015    3        5     9  35    7.2510   514.3    6.207      57.286
2015    3        5     9  40    7.2520   514.5    6.201      57.339
2015    3        5     9  46    7.2528   514.8    6.195      57.392
2015    3        5     9  51    7.2538   515.1    6.189      57.445
2015    3        5     9  56    7.2547   515.4    6.183      57.499
2015    3        5    10   2    7.2556   515.7    6.177      57.553
2015    3        5    10   7    7.2565   516.0    6.171      57.607
2015    3        5    10  12    7.2574   516.2    6.165      57.662
2015    3        5    10  18    7.2584   516.5    6.159      57.716
2015    3        5    10  23    7.2592   516.8    6.153      57.771
2015    3        5    10  29    7.2599   517.1    6.148      57.826
2015    3        5    10  34    7.2606   517.4    6.142      57.881
2015    3        5    10  39    7.2613   517.7    6.136      57.936
2015    3        5    10  45    7.2619   518.0    6.130      57.992
2015    3        5    10  50    7.2625   518.2    6.124      58.048
2015    3        5    10  55    7.2629   518.5    6.118      58.105
2015    3        5    11   1    7.2637   518.8    6.113      58.161
2015    3        5    11   6    7.2640   519.1    6.107      58.218
2015    3        5    11  12    7.2644   519.4    6.101      58.276
2015    3        5    11  17    7.2649   519.7    6.095      58.333
2015    3        5    11  22    7.2655   520.0    6.089      58.390
2015    3        5    11  28    7.2657   520.3    6.083      58.448
2015    3        5    11  33    7.2663   520.6    6.078      58.506
2015    3        5    11  38    7.2667   520.8    6.072      58.564
2015    3        5    11  44    7.2671   521.1    6.066      58.622
2015    3        5    11  49    7.2672   521.4    6.060      58.680
2015    3        5    11  55    7.2675   521.7    6.054      58.738
2015    3        5    12   0    7.2678   522.0    6.048      58.796
2015    3        5    12   5    7.2683   522.3    6.043      58.854
2015    3        5    12  11    7.2685   522.6    6.037      58.912
2015    3        5    12  16    7.2687   522.9    6.031      58.970
2015    3        5    12  21    7.2689   523.2    6.025      59.028
2015    3        5    12  27    7.2691   523.5    6.019      59.086
2015    3        5    12  32    7.2693   523.7    6.013      59.144
2015    3        5    12  37    7.2691   524.0    6.007      59.201
2015    3        5    12  43    7.2695   524.3    6.000      59.258
2015    3        5    12  48    7.2695   524.6    5.994      59.314
2015    3        5    12  54    7.2694   524.9    5.988      59.370
2015    3        5    12  59    7.2694   525.2    5.982      59.426
2015    3        5    13   4    7.2696   525.5    5.975      59.481
2015    3        5    13  10    7.2693   525.8    5.969      59.535
2015    3        5    13  15    7.2695   526.1    5.962      59.590
2015    3        5    13  20    7.2692   526.4    5.956      59.643
2015    3        5    13  26    7.2693   526.6    5.949      59.696
2015    3        5    13  31    7.2689   526.9    5.942      59.748
2015    3        5    13  37    7.2690   527.2    5.936      59.800
2015    3        5    13  42    7.2688   527.5    5.929      59.851
2015    3        5    13  47    7.2684   527.8    5.922      59.901
2015    3        5    13  53    7.2681   528.1    5.915      59.952
2015    3        5    13  58    7.2679   528.4    5.908      60.001
2015    3        5    14   3    7.2676   528.7    5.901      60.051
2015    3        5    14   9    7.2673   529.0    5.894      60.099
2015    3        5    14  14    7.2670   529.2    5.887      60.148
2015    3        5    14  19    7.2668   529.5    5.880      60.196
2015    3        5    14  25    7.2662   529.8    5.873      60.243
2015    3        5    14  30    7.2658   530.1    5.866      60.290
2015    3        5    14  36    7.2656   530.4    5.859      60.337
2015    3        5    14  41    7.2652   530.7    5.852      60.383
2015    3        5    14  46    7.2647   531.0    5.845      60.430
2015    3        5    14  52    7.2642   531.2    5.838      60.475
2015    3        5    14  57    7.2634   531.5    5.831      60.521
2015    3        5    15   2    7.2631   531.8    5.824      60.566
2015    3        5    15   8    7.2626   532.1    5.816      60.610
2015    3        5    15  13    7.2617   532.4    5.809      60.655
2015    3        5    15  19    7.2611   532.7    5.802      60.699
2015    3        5    15  24    7.2607   532.9    5.795      60.742
2015    3        5    15  29    7.2600   533.2    5.788      60.786
2015    3        5    15  35    7.2591   533.5    5.781      60.829
2015    3        5    15  40    7.2586   533.8    5.774      60.872
2015    3        5    15  45    7.2579   534.0    5.767      60.915
2015    3        5    15  51    7.2572   534.3    5.760      60.958
2015    3        5    15  56    7.2564   534.6    5.753      61.001
2015    3        5    16   1    7.2554   534.9    5.746      61.043
2015    3        5    16   7    7.2548   535.1    5.739      61.086
2015    3        5    16  12    7.2540   535.4    5.732      61.128
2015    3        5    16  18    7.2531   535.7    5.725      61.171
2015    3        5    16  23    7.2523   536.0    5.719      61.213
2015    3        5    16  28    7.2514   536.2    5.712      61.256
2015    3        5    16  34    7.2502   536.5    5.705      61.299
2015    3        5    16  39    7.2493   536.8    5.699      61.342
2015    3        5    16  44    7.2486   537.1    5.692      61.385
2015    3        5    16  50    7.2477   537.3    5.686      61.429
2015    3        5    16  55    7.2467   537.6    5.680      61.472
2015    3        5    17   1    7.2455   537.9    5.674      61.516
2015    3        5    17   6    7.2447   538.1    5.668      61.560
2015    3        5    17  11    7.2435   538.4    5.662      61.606
2015    3        5    17  17    7.2424   538.7    5.656      61.652
2015    3        5    17  22    7.2416   539.0    5.651      61.699
2015    3        5    17  27    7.2406   539.2    5.645      61.746
2015    3        5    17  33    7.2393   539.5    5.639      61.794
2015    3        5    17  38    7.2384   539.8    5.634      61.843
2015    3        5    17  43    7.2373   540.1    5.628      61.892
2015    3        5    17  49    7.2362   540.3    5.623      61.941
2015    3        5    17  54    7.2348   540.6    5.617      61.991
2015    3        5    18   0    7.2336   540.9    5.611      62.040
2015    3        5    18   5    7.2326   541.2    5.606      62.090
2015    3        5    18  10    7.2311   541.4    5.600      62.139
2015    3        5    18  16    7.2300   541.7    5.594      62.189
2015    3        5    18  21    7.2287   542.0    5.589      62.238
2015    3        5    18  26    7.2274   542.3    5.583      62.287
2015    3        5    18  32    7.2258   542.5    5.577      62.335
2015    3        5    18  37    7.2244   542.8    5.571      62.383
2015    3        5    18  43    7.2232   543.1    5.565      62.430
2015    3        5    18  48    7.2216   543.3    5.559      62.478
2015    3        5    18  53    7.2204   543.6    5.553      62.525
2015    3        5    18  59    7.2190   543.9    5.547      62.571
2015    3        5    19   4    7.2175   544.2    5.541      62.618
2015    3        5    19   9    7.2158   544.4    5.535      62.664
2015    3        5    19  15    7.2143   544.7    5.529      62.710
2015    3        5    19  20    7.2131   545.0    5.523      62.756
2015    3        5    19  26    7.2116   545.2    5.517      62.802
2015    3        5    19  31    7.2102   545.5    5.511      62.848
2015    3        5    19  36    7.2087   545.8    5.505      62.894
2015    3        5    19  42    7.2072   546.0    5.499      62.939
2015    3        5    19  47    7.2057   546.3    5.493      62.985
2015    3        5    19  52    7.2042   546.6    5.487      63.030
2015    3        5    19  58    7.2027   546.8    5.481      63.074
2015    3        5    20   3    7.2010   547.1    5.475      63.119
2015    3        5    20   8    7.1997   547.4    5.468      63.163
2015    3        5    20  14    7.1981   547.6    5.462      63.206
2015    3        5    20  19    7.1967   547.9    5.456      63.250
2015    3        5    20  25    7.1951   548.1    5.450      63.292
2015    3        5    20  30    7.1936   548.4    5.444      63.335
2015    3        5    20  35    7.1921   548.7    5.437      63.377
2015    3        5    20  41    7.1908   548.9    5.431      63.418
2015    3        5    20  46    7.1891   549.2    5.425      63.459
2015    3        5    20  51    7.1876   549.4    5.419      63.500
2015    3        5    20  57    7.1862   549.7    5.412      63.540
2015    3        5    21   2    7.1848   550.0    5.406      63.580
2015    3        5    21   8    7.1832   550.2    5.400      63.620
2015    3        5    21  13    7.1819   550.5    5.394      63.659
2015    3        5    21  18    7.1803   550.7    5.388      63.698
2015    3        5    21  24    7.1788   551.0    5.382      63.737
2015    3        5    21  29    7.1773   551.2    5.375      63.776
2015    3        5    21  34    7.1759   551.5    5.369      63.815
2015    3        5    21  40    7.1744   551.7    5.363      63.853
2015    3        5    21  45    7.1731   552.0    5.358      63.892
2015    3        5    21  50    7.1715   552.2    5.352      63.931
2015    3        5    21  56    7.1700   552.5    5.346      63.970
2015    3        5    22   1    7.1687   552.7    5.340      64.008
2015    3        5    22   7    7.1671   553.0    5.335      64.048
2015    3        5    22  12    7.1658   553.2    5.329      64.088
2015    3        5    22  17    7.1643   553.5    5.324      64.128
2015    3        5    22  23    7.1628   553.7    5.319      64.168
2015    3        5    22  28    7.1614   554.0    5.314      64.209
2015    3        5    22  33    7.1600   554.3    5.309      64.252
2015    3        5    22  39    7.1585   554.5    5.304      64.295
2015    3        5    22  44    7.1571   554.8    5.299      64.339
2015    3        5    22  50    7.1556   555.0    5.294      64.384
2015    3        5    22  55    7.1542   555.3    5.289      64.429
2015    3        5    23   0    7.1526   555.5    5.284      64.474
2015    3        5    23   6    7.1511   555.8    5.279      64.520
2015    3        5    23  11    7.1496   556.0    5.274      64.565
2015    3        5    23  16    7.1482   556.3    5.269      64.610
2015    3        5    23  22    7.1465   556.6    5.264      64.655
2015    3        5    23  27    7.1450   556.8    5.259      64.699
2015    3        5    23  32    7.1434   557.1    5.254      64.743
2015    3        5    23  38    7.1417   557.3    5.249      64.787
2015    3        5    23  43    7.1401   557.6    5.243      64.830
2015    3        5    23  49    7.1385   557.9    5.238      64.872
2015    3        5    23  54    7.1368   558.1    5.233      64.914
2015    3        5    23  59    7.1351   558.4    5.228      64.955
2015    3        6     0   5    7.1334   558.6    5.222      64.996
2015    3        6     0  10    7.1318   558.9    5.217      65.037
2015    3        6     0  15    7.1300   559.1    5.212      65.077
2015    3        6     0  21    7.1283   559.4    5.207      65.117
2015    3        6     0  26    7.1266   559.6    5.202      65.157
2015    3        6     0  32    7.1249   559.9    5.197      65.198
2015    3        6     0  37    7.1232   560.1    5.192      65.240
2015    3        6     0  42    7.1215   560.4    5.187      65.281
2015    3        6     0  48    7.1197   560.6    5.182      65.323
2015    3        6     0  53    7.1181   560.9    5.177      65.365
2015    3        6     0  58    7.1163   561.2    5.172      65.408
2015    3        6     1   4    7.1146   561.4    5.167      65.450
2015    3        6     1   9    7.1129   561.7    5.162      65.492
2015    3        6     1  14    7.1111   561.9    5.157      65.534
2015    3        6     1  20    7.1094   562.2    5.151      65.576
2015    3        6     1  25    7.1076   562.4    5.146      65.617
2015    3        6     1  31    7.1058   562.7    5.141      65.658
2015    3        6     1  36    7.1040   562.9    5.135      65.698
2015    3        6     1  41    7.1022   563.2    5.130      65.738
2015    3        6     1  47    7.1004   563.5    5.124      65.777
2015    3        6     1  52    7.0986   563.7    5.119      65.815
2015    3        6     1  57    7.0968   564.0    5.113      65.853
2015    3        6     2   3    7.0950   564.2    5.107      65.890
