year    month   day   hour  minute  B_enl V_enl   n_enl       T_enl
[year] [month] [day] [hour][minute] [nT]  [km/s]  [cm-3]      [kK]
2015    3       19     0   3    5.7156   569.2    4.718      63.139
2015    3       19     0   9    5.7111   569.4    4.711      63.126
2015    3       19     0  14    5.7065   569.5    4.705      63.114
2015    3       19     0  20    5.7020   569.7    4.698      63.101
2015    3       19     0  25    5.6974   569.8    4.692      63.088
2015    3       19     0  31    5.6928   570.0    4.686      63.075
2015    3       19     0  36    5.6883   570.1    4.680      63.062
2015    3       19     0  42    5.6837   570.2    4.674      63.048
2015    3       19     0  47    5.6791   570.4    4.668      63.034
2015    3       19     0  53    5.6745   570.5    4.662      63.019
2015    3       19     0  58    5.6699   570.6    4.656      63.004
2015    3       19     1   4    5.6653   570.8    4.650      62.989
2015    3       19     1  10    5.6608   570.9    4.644      62.974
2015    3       19     1  15    5.6563   571.0    4.639      62.958
2015    3       19     1  21    5.6517   571.1    4.633      62.943
2015    3       19     1  26    5.6472   571.3    4.628      62.927
2015    3       19     1  32    5.6428   571.4    4.623      62.910
2015    3       19     1  37    5.6383   571.5    4.617      62.894
2015    3       19     1  43    5.6340   571.6    4.612      62.877
2015    3       19     1  48    5.6296   571.7    4.608      62.861
2015    3       19     1  54    5.6253   571.8    4.603      62.845
2015    3       19     1  59    5.6210   571.9    4.598      62.828
2015    3       19     2   5    5.6168   572.1    4.594      62.812
2015    3       19     2  10    5.6126   572.2    4.589      62.795
2015    3       19     2  16    5.6084   572.3    4.585      62.778
2015    3       19     2  21    5.6043   572.4    4.580      62.761
2015    3       19     2  27    5.6002   572.5    4.576      62.745
2015    3       19     2  32    5.5960   572.6    4.572      62.727
2015    3       19     2  38    5.5919   572.7    4.567      62.709
2015    3       19     2  44    5.5878   572.8    4.563      62.691
2015    3       19     2  49    5.5836   572.9    4.558      62.671
2015    3       19     2  55    5.5794   573.0    4.554      62.650
2015    3       19     3   0    5.5752   573.2    4.549      62.628
2015    3       19     3   6    5.5710   573.3    4.544      62.604
2015    3       19     3  11    5.5667   573.4    4.539      62.579
2015    3       19     3  17    5.5624   573.5    4.534      62.553
2015    3       19     3  22    5.5581   573.6    4.528      62.526
2015    3       19     3  28    5.5537   573.7    4.523      62.498
2015    3       19     3  33    5.5494   573.8    4.517      62.468
2015    3       19     3  39    5.5450   573.9    4.512      62.438
2015    3       19     3  44    5.5406   574.0    4.506      62.407
2015    3       19     3  50    5.5362   574.1    4.501      62.375
2015    3       19     3  55    5.5318   574.2    4.495      62.342
2015    3       19     4   1    5.5273   574.3    4.489      62.309
2015    3       19     4   6    5.5229   574.4    4.483      62.275
2015    3       19     4  12    5.5184   574.5    4.477      62.240
2015    3       19     4  17    5.5139   574.6    4.471      62.204
2015    3       19     4  23    5.5094   574.7    4.465      62.167
2015    3       19     4  29    5.5049   574.8    4.459      62.130
2015    3       19     4  34    5.5004   574.9    4.453      62.093
2015    3       19     4  40    5.4959   574.9    4.447      62.054
2015    3       19     4  45    5.4914   575.0    4.441      62.015
2015    3       19     4  51    5.4868   575.1    4.435      61.976
2015    3       19     4  56    5.4823   575.2    4.429      61.935
2015    3       19     5   2    5.4778   575.3    4.423      61.895
2015    3       19     5   7    5.4733   575.4    4.417      61.853
2015    3       19     5  13    5.4688   575.4    4.411      61.812
2015    3       19     5  18    5.4644   575.5    4.405      61.770
2015    3       19     5  24    5.4599   575.6    4.398      61.727
2015    3       19     5  29    5.4554   575.6    4.392      61.683
2015    3       19     5  35    5.4510   575.7    4.386      61.639
2015    3       19     5  40    5.4466   575.8    4.380      61.595
2015    3       19     5  46    5.4422   575.8    4.374      61.550
2015    3       19     5  51    5.4378   575.9    4.368      61.505
2015    3       19     5  57    5.4335   576.0    4.362      61.460
2015    3       19     6   2    5.4291   576.0    4.356      61.414
2015    3       19     6   8    5.4248   576.1    4.350      61.368
2015    3       19     6  14    5.4205   576.1    4.344      61.322
2015    3       19     6  19    5.4162   576.2    4.338      61.275
2015    3       19     6  25    5.4119   576.2    4.333      61.229
2015    3       19     6  30    5.4077   576.3    4.327      61.182
2015    3       19     6  36    5.4034   576.3    4.321      61.136
2015    3       19     6  41    5.3992   576.4    4.316      61.089
2015    3       19     6  47    5.3950   576.4    4.310      61.043
2015    3       19     6  52    5.3908   576.5    4.305      60.997
2015    3       19     6  58    5.3867   576.5    4.299      60.951
2015    3       19     7   3    5.3825   576.5    4.294      60.905
2015    3       19     7   9    5.3784   576.5    4.289      60.860
2015    3       19     7  14    5.3743   576.6    4.284      60.815
2015    3       19     7  20    5.3703   576.6    4.279      60.770
2015    3       19     7  25    5.3662   576.6    4.274      60.727
2015    3       19     7  31    5.3622   576.6    4.270      60.683
2015    3       19     7  36    5.3582   576.7    4.265      60.641
2015    3       19     7  42    5.3542   576.7    4.261      60.599
2015    3       19     7  47    5.3502   576.7    4.257      60.557
2015    3       19     7  53    5.3463   576.7    4.252      60.517
2015    3       19     7  59    5.3424   576.7    4.249      60.477
2015    3       19     8   4    5.3385   576.7    4.245      60.438
2015    3       19     8  10    5.3347   576.7    4.241      60.400
2015    3       19     8  15    5.3309   576.7    4.238      60.363
2015    3       19     8  21    5.3271   576.7    4.234      60.327
2015    3       19     8  26    5.3234   576.7    4.231      60.292
2015    3       19     8  32    5.3198   576.7    4.228      60.258
2015    3       19     8  37    5.3162   576.7    4.226      60.224
2015    3       19     8  43    5.3126   576.7    4.223      60.192
2015    3       19     8  48    5.3092   576.7    4.221      60.161
2015    3       19     8  54    5.3057   576.7    4.218      60.131
2015    3       19     8  59    5.3024   576.7    4.216      60.102
2015    3       19     9   5    5.2991   576.7    4.215      60.074
2015    3       19     9  10    5.2958   576.7    4.213      60.047
2015    3       19     9  16    5.2926   576.7    4.211      60.021
2015    3       19     9  21    5.2894   576.6    4.210      59.995
2015    3       19     9  27    5.2863   576.6    4.209      59.971
2015    3       19     9  32    5.2833   576.6    4.208      59.947
2015    3       19     9  38    5.2802   576.6    4.207      59.924
2015    3       19     9  44    5.2772   576.6    4.206      59.901
2015    3       19     9  49    5.2742   576.6    4.205      59.878
2015    3       19     9  55    5.2711   576.6    4.204      59.855
2015    3       19    10   0    5.2681   576.6    4.202      59.833
2015    3       19    10   6    5.2650   576.6    4.201      59.809
2015    3       19    10  11    5.2619   576.6    4.200      59.785
2015    3       19    10  17    5.2589   576.6    4.198      59.760
2015    3       19    10  22    5.2557   576.6    4.197      59.734
2015    3       19    10  28    5.2526   576.6    4.195      59.707
2015    3       19    10  33    5.2495   576.6    4.194      59.680
2015    3       19    10  39    5.2463   576.6    4.192      59.652
2015    3       19    10  44    5.2432   576.6    4.190      59.624
2015    3       19    10  50    5.2400   576.6    4.188      59.595
2015    3       19    10  55    5.2368   576.6    4.186      59.566
2015    3       19    11   1    5.2337   576.6    4.184      59.536
2015    3       19    11   6    5.2305   576.6    4.182      59.506
2015    3       19    11  12    5.2273   576.6    4.180      59.475
2015    3       19    11  18    5.2241   576.6    4.178      59.444
2015    3       19    11  23    5.2210   576.6    4.176      59.413
2015    3       19    11  29    5.2178   576.6    4.174      59.382
2015    3       19    11  34    5.2146   576.5    4.172      59.351
2015    3       19    11  40    5.2115   576.5    4.170      59.319
2015    3       19    11  45    5.2084   576.5    4.167      59.287
2015    3       19    11  51    5.2052   576.5    4.165      59.255
2015    3       19    11  56    5.2021   576.5    4.163      59.223
2015    3       19    12   2    5.1989   576.5    4.161      59.191
2015    3       19    12   7    5.1958   576.5    4.159      59.158
2015    3       19    12  13    5.1927   576.5    4.157      59.126
2015    3       19    12  18    5.1896   576.5    4.154      59.093
2015    3       19    12  24    5.1865   576.5    4.152      59.061
2015    3       19    12  29    5.1834   576.5    4.150      59.028
2015    3       19    12  35    5.1804   576.5    4.148      58.996
2015    3       19    12  40    5.1773   576.5    4.146      58.963
2015    3       19    12  46    5.1742   576.4    4.144      58.930
2015    3       19    12  51    5.1712   576.4    4.142      58.898
2015    3       19    12  57    5.1682   576.4    4.139      58.865
2015    3       19    13   3    5.1651   576.4    4.137      58.832
2015    3       19    13   8    5.1621   576.4    4.135      58.799
2015    3       19    13  14    5.1591   576.4    4.133      58.767
2015    3       19    13  19    5.1561   576.4    4.131      58.734
2015    3       19    13  25    5.1531   576.4    4.129      58.701
2015    3       19    13  30    5.1502   576.3    4.127      58.668
2015    3       19    13  36    5.1472   576.3    4.125      58.635
2015    3       19    13  41    5.1442   576.3    4.123      58.602
2015    3       19    13  47    5.1413   576.3    4.121      58.569
2015    3       19    13  52    5.1383   576.3    4.119      58.536
2015    3       19    13  58    5.1354   576.3    4.117      58.502
2015    3       19    14   3    5.1325   576.2    4.115      58.469
2015    3       19    14   9    5.1296   576.2    4.113      58.435
2015    3       19    14  14    5.1266   576.2    4.111      58.402
2015    3       19    14  20    5.1238   576.2    4.109      58.368
2015    3       19    14  25    5.1209   576.1    4.107      58.335
2015    3       19    14  31    5.1180   576.1    4.105      58.301
2015    3       19    14  36    5.1151   576.1    4.103      58.267
2015    3       19    14  42    5.1123   576.1    4.101      58.233
2015    3       19    14  48    5.1095   576.0    4.099      58.200
2015    3       19    14  53    5.1067   576.0    4.097      58.166
2015    3       19    14  59    5.1039   576.0    4.095      58.133
2015    3       19    15   4    5.1012   575.9    4.093      58.099
2015    3       19    15  10    5.0984   575.9    4.092      58.065
2015    3       19    15  15    5.0957   575.8    4.090      58.032
2015    3       19    15  21    5.0930   575.8    4.088      57.999
2015    3       19    15  26    5.0904   575.8    4.086      57.966
2015    3       19    15  32    5.0877   575.7    4.084      57.933
2015    3       19    15  37    5.0851   575.7    4.083      57.900
2015    3       19    15  43    5.0826   575.6    4.081      57.867
2015    3       19    15  48    5.0800   575.6    4.079      57.835
2015    3       19    15  54    5.0775   575.6    4.077      57.803
2015    3       19    15  59    5.0750   575.5    4.076      57.770
2015    3       19    16   5    5.0725   575.5    4.074      57.739
2015    3       19    16  10    5.0701   575.4    4.073      57.707
2015    3       19    16  16    5.0677   575.4    4.071      57.675
2015    3       19    16  21    5.0653   575.3    4.069      57.644
2015    3       19    16  27    5.0630   575.3    4.068      57.613
2015    3       19    16  33    5.0606   575.2    4.066      57.582
2015    3       19    16  38    5.0583   575.2    4.065      57.551
2015    3       19    16  44    5.0561   575.1    4.064      57.520
2015    3       19    16  49    5.0538   575.1    4.062      57.489
2015    3       19    16  55    5.0516   575.0    4.061      57.459
2015    3       19    17   0    5.0493   575.0    4.059      57.428
2015    3       19    17   6    5.0471   574.9    4.058      57.398
2015    3       19    17  11    5.0450   574.8    4.057      57.367
2015    3       19    17  17    5.0428   574.8    4.055      57.337
2015    3       19    17  22    5.0406   574.7    4.054      57.307
2015    3       19    17  28    5.0385   574.7    4.053      57.277
2015    3       19    17  33    5.0364   574.6    4.051      57.247
2015    3       19    17  39    5.0343   574.6    4.050      57.217
2015    3       19    17  44    5.0321   574.5    4.049      57.187
2015    3       19    17  50    5.0301   574.4    4.048      57.157
2015    3       19    17  55    5.0280   574.4    4.046      57.127
2015    3       19    18   1    5.0259   574.3    4.045      57.097
2015    3       19    18   6    5.0239   574.3    4.044      57.067
2015    3       19    18  12    5.0219   574.2    4.043      57.038
2015    3       19    18  18    5.0199   574.2    4.042      57.008
2015    3       19    18  23    5.0179   574.1    4.040      56.978
2015    3       19    18  29    5.0159   574.0    4.039      56.948
2015    3       19    18  34    5.0139   574.0    4.038      56.918
2015    3       19    18  40    5.0120   573.9    4.037      56.889
2015    3       19    18  45    5.0100   573.9    4.036      56.859
2015    3       19    18  51    5.0081   573.8    4.035      56.829
2015    3       19    18  56    5.0062   573.7    4.034      56.799
2015    3       19    19   2    5.0043   573.7    4.033      56.769
2015    3       19    19   7    5.0024   573.6    4.032      56.739
2015    3       19    19  13    5.0005   573.6    4.031      56.710
2015    3       19    19  18    4.9986   573.5    4.030      56.680
2015    3       19    19  24    4.9968   573.4    4.029      56.650
2015    3       19    19  29    4.9949   573.4    4.029      56.620
2015    3       19    19  35    4.9931   573.3    4.028      56.591
2015    3       19    19  40    4.9912   573.3    4.027      56.561
2015    3       19    19  46    4.9894   573.2    4.026      56.531
2015    3       19    19  52    4.9876   573.1    4.025      56.502
2015    3       19    19  57    4.9858   573.1    4.025      56.473
2015    3       19    20   3    4.9840   573.0    4.024      56.443
2015    3       19    20   8    4.9821   573.0    4.023      56.414
2015    3       19    20  14    4.9804   572.9    4.023      56.385
2015    3       19    20  19    4.9786   572.8    4.022      56.356
2015    3       19    20  25    4.9768   572.8    4.022      56.328
2015    3       19    20  30    4.9750   572.7    4.021      56.299
2015    3       19    20  36    4.9733   572.7    4.021      56.271
2015    3       19    20  41    4.9715   572.6    4.021      56.242
2015    3       19    20  47    4.9698   572.5    4.020      56.215
2015    3       19    20  52    4.9680   572.5    4.020      56.187
2015    3       19    20  58    4.9663   572.4    4.020      56.159
2015    3       19    21   3    4.9646   572.4    4.020      56.132
2015    3       19    21   9    4.9629   572.3    4.019      56.105
2015    3       19    21  14    4.9612   572.2    4.019      56.078
2015    3       19    21  20    4.9595   572.2    4.019      56.051
2015    3       19    21  25    4.9578   572.1    4.019      56.025
2015    3       19    21  31    4.9561   572.1    4.019      55.998
2015    3       19    21  37    4.9544   572.0    4.019      55.972
2015    3       19    21  42    4.9527   571.9    4.019      55.946
2015    3       19    21  48    4.9511   571.9    4.019      55.920
2015    3       19    21  53    4.9494   571.8    4.019      55.895
2015    3       19    21  59    4.9477   571.7    4.019      55.869
2015    3       19    22   4    4.9461   571.7    4.019      55.844
2015    3       19    22  10    4.9444   571.6    4.019      55.819
2015    3       19    22  15    4.9428   571.5    4.019      55.794
2015    3       19    22  21    4.9412   571.5    4.020      55.769
2015    3       19    22  26    4.9396   571.4    4.020      55.744
2015    3       19    22  32    4.9379   571.3    4.020      55.719
2015    3       19    22  37    4.9363   571.3    4.020      55.695
2015    3       19    22  43    4.9347   571.2    4.020      55.671
2015    3       19    22  48    4.9331   571.1    4.020      55.647
2015    3       19    22  54    4.9315   571.1    4.020      55.623
2015    3       19    22  59    4.9300   571.0    4.020      55.599
2015    3       19    23   5    4.9284   570.9    4.020      55.575
2015    3       19    23  10    4.9268   570.9    4.020      55.551
2015    3       19    23  16    4.9253   570.8    4.020      55.528
2015    3       19    23  22    4.9237   570.7    4.020      55.504
2015    3       19    23  27    4.9222   570.6    4.020      55.480
2015    3       19    23  33    4.9207   570.6    4.020      55.457
2015    3       19    23  38    4.9191   570.5    4.020      55.434
2015    3       19    23  44    4.9176   570.4    4.020      55.411
2015    3       19    23  49    4.9162   570.3    4.020      55.388
2015    3       19    23  55    4.9147   570.2    4.020      55.365
2015    3       20     0   0    4.9132   570.2    4.019      55.343
2015    3       20     0   6    4.9118   570.1    4.019      55.320
2015    3       20     0  11    4.9104   570.0    4.019      55.298
2015    3       20     0  17    4.9090   569.9    4.018      55.276
2015    3       20     0  22    4.9077   569.9    4.018      55.254
2015    3       20     0  28    4.9063   569.8    4.018      55.233
2015    3       20     0  33    4.9050   569.7    4.017      55.211
2015    3       20     0  39    4.9037   569.6    4.017      55.190
2015    3       20     0  44    4.9024   569.5    4.016      55.168
2015    3       20     0  50    4.9011   569.5    4.016      55.147
2015    3       20     0  55    4.8999   569.4    4.016      55.126
2015    3       20     1   1    4.8987   569.3    4.015      55.104
2015    3       20     1   7    4.8975   569.2    4.015      55.082
2015    3       20     1  12    4.8963   569.2    4.014      55.060
2015    3       20     1  18    4.8951   569.1    4.014      55.038
2015    3       20     1  23    4.8940   569.0    4.013      55.016
2015    3       20     1  29    4.8929   568.9    4.013      54.993
2015    3       20     1  34    4.8918   568.8    4.012      54.971
2015    3       20     1  40    4.8907   568.8    4.011      54.947
2015    3       20     1  45    4.8896   568.7    4.011      54.924
2015    3       20     1  51    4.8886   568.6    4.010      54.901
2015    3       20     1  56    4.8876   568.5    4.010      54.877
2015    3       20     2   2    4.8865   568.4    4.009      54.853
2015    3       20     2   7    4.8856   568.4    4.009      54.828
2015    3       20     2  13    4.8846   568.3    4.008      54.804
2015    3       20     2  18    4.8836   568.2    4.007      54.779
2015    3       20     2  24    4.8827   568.1    4.007      54.753
2015    3       20     2  29    4.8817   568.0    4.006      54.728
2015    3       20     2  35    4.8808   568.0    4.005      54.702
2015    3       20     2  40    4.8799   567.9    4.005      54.675
2015    3       20     2  46    4.8790   567.8    4.004      54.649
2015    3       20     2  52    4.8781   567.7    4.004      54.622
