year    month   day   hour  minute  B_enl V_enl   n_enl       T_enl
[year] [month] [day] [hour][minute] [nT]  [km/s]  [cm-3]      [kK]
2015    3        2     0   1    4.2103   530.7    3.350      39.398
2015    3        2     0   6    4.2113   530.4    3.355      39.351
2015    3        2     0  11    4.2119   530.0    3.360      39.305
2015    3        2     0  17    4.2127   529.7    3.365      39.259
2015    3        2     0  22    4.2137   529.3    3.370      39.213
2015    3        2     0  28    4.2144   529.0    3.375      39.167
2015    3        2     0  33    4.2153   528.6    3.380      39.121
2015    3        2     0  38    4.2162   528.3    3.385      39.075
2015    3        2     0  44    4.2173   527.9    3.391      39.029
2015    3        2     0  49    4.2181   527.6    3.396      38.983
2015    3        2     0  54    4.2191   527.2    3.401      38.937
2015    3        2     1   0    4.2202   526.9    3.406      38.892
2015    3        2     1   5    4.2210   526.5    3.411      38.846
2015    3        2     1  11    4.2221   526.2    3.416      38.800
2015    3        2     1  16    4.2233   525.9    3.422      38.755
2015    3        2     1  21    4.2242   525.5    3.427      38.710
2015    3        2     1  27    4.2255   525.2    3.432      38.664
2015    3        2     1  32    4.2266   524.8    3.437      38.620
2015    3        2     1  38    4.2276   524.5    3.443      38.575
2015    3        2     1  43    4.2290   524.1    3.448      38.530
2015    3        2     1  48    4.2300   523.8    3.454      38.485
2015    3        2     1  54    4.2314   523.5    3.459      38.441
2015    3        2     1  59    4.2327   523.1    3.465      38.396
2015    3        2     2   5    4.2337   522.8    3.470      38.352
2015    3        2     2  10    4.2352   522.4    3.476      38.308
2015    3        2     2  15    4.2363   522.1    3.481      38.264
2015    3        2     2  21    4.2377   521.8    3.487      38.220
2015    3        2     2  26    4.2391   521.4    3.492      38.176
2015    3        2     2  32    4.2407   521.1    3.498      38.133
2015    3        2     2  37    4.2421   520.8    3.504      38.089
2015    3        2     2  42    4.2435   520.4    3.509      38.046
2015    3        2     2  48    4.2450   520.1    3.515      38.003
2015    3        2     2  53    4.2465   519.8    3.521      37.960
2015    3        2     2  59    4.2478   519.4    3.527      37.917
2015    3        2     3   4    4.2493   519.1    3.533      37.874
2015    3        2     3   9    4.2509   518.8    3.539      37.832
2015    3        2     3  15    4.2527   518.4    3.544      37.790
2015    3        2     3  20    4.2541   518.1    3.550      37.748
2015    3        2     3  26    4.2560   517.8    3.556      37.706
2015    3        2     3  31    4.2574   517.5    3.562      37.664
2015    3        2     3  36    4.2593   517.1    3.569      37.622
2015    3        2     3  42    4.2610   516.8    3.575      37.580
2015    3        2     3  47    4.2628   516.5    3.581      37.539
2015    3        2     3  53    4.2645   516.2    3.587      37.498
2015    3        2     3  58    4.2661   515.8    3.593      37.457
2015    3        2     4   3    4.2679   515.5    3.599      37.416
2015    3        2     4   9    4.2698   515.2    3.606      37.375
2015    3        2     4  14    4.2716   514.9    3.612      37.335
2015    3        2     4  20    4.2735   514.6    3.618      37.295
2015    3        2     4  25    4.2756   514.2    3.625      37.255
2015    3        2     4  30    4.2776   513.9    3.631      37.215
2015    3        2     4  36    4.2795   513.6    3.638      37.176
2015    3        2     4  41    4.2813   513.3    3.644      37.136
2015    3        2     4  46    4.2835   513.0    3.651      37.097
2015    3        2     4  52    4.2856   512.7    3.658      37.059
2015    3        2     4  57    4.2875   512.3    3.664      37.020
2015    3        2     5   3    4.2896   512.0    3.671      36.982
2015    3        2     5   8    4.2917   511.7    3.678      36.945
2015    3        2     5  13    4.2940   511.4    3.685      36.907
2015    3        2     5  19    4.2962   511.1    3.692      36.870
2015    3        2     5  24    4.2984   510.8    3.699      36.833
2015    3        2     5  30    4.3004   510.5    3.706      36.797
2015    3        2     5  35    4.3026   510.2    3.713      36.761
2015    3        2     5  40    4.3049   509.9    3.720      36.724
2015    3        2     5  46    4.3074   509.6    3.727      36.689
2015    3        2     5  51    4.3095   509.3    3.734      36.654
2015    3        2     5  57    4.3118   509.0    3.741      36.618
2015    3        2     6   2    4.3142   508.7    3.749      36.584
2015    3        2     6   7    4.3165   508.4    3.756      36.549
2015    3        2     6  13    4.3189   508.1    3.763      36.515
2015    3        2     6  18    4.3213   507.8    3.770      36.481
2015    3        2     6  24    4.3239   507.5    3.778      36.447
2015    3        2     6  29    4.3262   507.2    3.785      36.413
2015    3        2     6  34    4.3286   506.9    3.793      36.380
2015    3        2     6  40    4.3312   506.6    3.800      36.347
2015    3        2     6  45    4.3337   506.3    3.807      36.313
2015    3        2     6  51    4.3360   506.1    3.815      36.281
2015    3        2     6  56    4.3385   505.8    3.822      36.248
2015    3        2     7   1    4.3411   505.5    3.830      36.215
2015    3        2     7   7    4.3436   505.2    3.837      36.183
2015    3        2     7  12    4.3461   504.9    3.845      36.150
2015    3        2     7  18    4.3487   504.6    3.852      36.118
2015    3        2     7  23    4.3513   504.4    3.860      36.086
2015    3        2     7  28    4.3538   504.1    3.867      36.054
2015    3        2     7  34    4.3564   503.8    3.875      36.022
2015    3        2     7  39    4.3590   503.5    3.883      35.990
2015    3        2     7  45    4.3617   503.2    3.890      35.959
2015    3        2     7  50    4.3645   503.0    3.898      35.927
2015    3        2     7  55    4.3671   502.7    3.905      35.896
2015    3        2     8   1    4.3697   502.4    3.913      35.865
2015    3        2     8   6    4.3724   502.1    3.920      35.834
2015    3        2     8  12    4.3751   501.9    3.928      35.803
2015    3        2     8  17    4.3778   501.6    3.936      35.772
2015    3        2     8  22    4.3807   501.3    3.943      35.741
2015    3        2     8  28    4.3835   501.1    3.951      35.710
2015    3        2     8  33    4.3861   500.8    3.959      35.680
2015    3        2     8  38    4.3889   500.5    3.966      35.650
2015    3        2     8  44    4.3918   500.3    3.974      35.620
2015    3        2     8  49    4.3945   500.0    3.982      35.590
2015    3        2     8  55    4.3974   499.8    3.989      35.560
2015    3        2     9   0    4.4002   499.5    3.997      35.530
2015    3        2     9   5    4.4033   499.2    4.005      35.501
2015    3        2     9  11    4.4060   499.0    4.013      35.472
2015    3        2     9  16    4.4090   498.7    4.020      35.443
2015    3        2     9  22    4.4119   498.5    4.028      35.414
2015    3        2     9  27    4.4149   498.2    4.036      35.385
2015    3        2     9  32    4.4178   498.0    4.044      35.357
2015    3        2     9  38    4.4208   497.7    4.052      35.329
2015    3        2     9  43    4.4238   497.4    4.060      35.301
2015    3        2     9  49    4.4270   497.2    4.068      35.273
2015    3        2     9  54    4.4299   496.9    4.076      35.246
2015    3        2     9  59    4.4329   496.7    4.084      35.219
2015    3        2    10   5    4.4360   496.5    4.092      35.192
2015    3        2    10  10    4.4391   496.2    4.100      35.165
2015    3        2    10  16    4.4422   496.0    4.108      35.139
2015    3        2    10  21    4.4453   495.7    4.116      35.113
2015    3        2    10  26    4.4485   495.5    4.124      35.087
2015    3        2    10  32    4.4516   495.2    4.132      35.061
2015    3        2    10  37    4.4548   495.0    4.140      35.036
2015    3        2    10  43    4.4580   494.8    4.148      35.011
2015    3        2    10  48    4.4612   494.5    4.157      34.986
2015    3        2    10  53    4.4645   494.3    4.165      34.962
2015    3        2    10  59    4.4676   494.1    4.173      34.937
2015    3        2    11   4    4.4708   493.8    4.181      34.913
2015    3        2    11  10    4.4741   493.6    4.190      34.890
2015    3        2    11  15    4.4774   493.4    4.198      34.866
2015    3        2    11  20    4.4807   493.1    4.206      34.843
2015    3        2    11  26    4.4840   492.9    4.215      34.821
2015    3        2    11  31    4.4873   492.7    4.223      34.798
2015    3        2    11  37    4.4906   492.4    4.231      34.776
2015    3        2    11  42    4.4941   492.2    4.240      34.755
2015    3        2    11  47    4.4974   492.0    4.248      34.733
2015    3        2    11  53    4.5009   491.8    4.257      34.712
2015    3        2    11  58    4.5042   491.6    4.265      34.691
2015    3        2    12   4    4.5076   491.3    4.274      34.671
2015    3        2    12   9    4.5111   491.1    4.282      34.651
2015    3        2    12  14    4.5145   490.9    4.291      34.632
2015    3        2    12  20    4.5180   490.7    4.299      34.612
2015    3        2    12  25    4.5215   490.5    4.308      34.593
2015    3        2    12  30    4.5250   490.3    4.317      34.575
2015    3        2    12  36    4.5286   490.0    4.325      34.557
2015    3        2    12  41    4.5321   489.8    4.334      34.539
2015    3        2    12  47    4.5357   489.6    4.343      34.522
2015    3        2    12  52    4.5393   489.4    4.351      34.505
2015    3        2    12  57    4.5429   489.2    4.360      34.488
2015    3        2    13   3    4.5465   489.0    4.369      34.472
2015    3        2    13   8    4.5502   488.8    4.378      34.456
2015    3        2    13  14    4.5539   488.6    4.387      34.440
2015    3        2    13  19    4.5575   488.4    4.395      34.425
2015    3        2    13  24    4.5612   488.2    4.404      34.410
2015    3        2    13  30    4.5649   488.0    4.413      34.395
2015    3        2    13  35    4.5686   487.8    4.422      34.381
2015    3        2    13  41    4.5723   487.6    4.431      34.367
2015    3        2    13  46    4.5760   487.4    4.440      34.353
2015    3        2    13  51    4.5798   487.2    4.448      34.339
2015    3        2    13  57    4.5836   487.0    4.457      34.326
2015    3        2    14   2    4.5873   486.9    4.466      34.313
2015    3        2    14   8    4.5911   486.7    4.475      34.300
2015    3        2    14  13    4.5949   486.5    4.484      34.288
2015    3        2    14  18    4.5988   486.3    4.493      34.276
2015    3        2    14  24    4.6026   486.1    4.502      34.264
2015    3        2    14  29    4.6064   485.9    4.511      34.252
2015    3        2    14  35    4.6103   485.8    4.519      34.240
2015    3        2    14  40    4.6143   485.6    4.528      34.229
2015    3        2    14  45    4.6181   485.4    4.537      34.218
2015    3        2    14  51    4.6220   485.2    4.546      34.207
2015    3        2    14  56    4.6259   485.0    4.555      34.197
2015    3        2    15   2    4.6298   484.9    4.564      34.186
2015    3        2    15   7    4.6338   484.7    4.573      34.176
2015    3        2    15  12    4.6378   484.5    4.582      34.166
2015    3        2    15  18    4.6418   484.3    4.591      34.156
2015    3        2    15  23    4.6457   484.2    4.600      34.147
2015    3        2    15  29    4.6498   484.0    4.609      34.137
2015    3        2    15  34    4.6539   483.8    4.618      34.128
2015    3        2    15  39    4.6578   483.7    4.627      34.119
2015    3        2    15  45    4.6619   483.5    4.636      34.110
2015    3        2    15  50    4.6660   483.3    4.645      34.102
2015    3        2    15  56    4.6701   483.2    4.654      34.094
2015    3        2    16   1    4.6742   483.0    4.663      34.086
2015    3        2    16   6    4.6784   482.9    4.672      34.078
2015    3        2    16  12    4.6825   482.7    4.681      34.070
2015    3        2    16  17    4.6867   482.5    4.690      34.063
2015    3        2    16  22    4.6909   482.4    4.699      34.056
2015    3        2    16  28    4.6951   482.2    4.709      34.049
2015    3        2    16  33    4.6995   482.1    4.718      34.043
2015    3        2    16  39    4.7036   481.9    4.727      34.037
2015    3        2    16  44    4.7079   481.8    4.736      34.031
2015    3        2    16  49    4.7122   481.6    4.746      34.026
2015    3        2    16  55    4.7165   481.5    4.755      34.021
2015    3        2    17   0    4.7207   481.3    4.764      34.017
2015    3        2    17   6    4.7251   481.2    4.774      34.013
2015    3        2    17  11    4.7294   481.0    4.783      34.009
2015    3        2    17  16    4.7338   480.9    4.792      34.006
2015    3        2    17  22    4.7380   480.8    4.801      34.003
2015    3        2    17  27    4.7424   480.6    4.811      34.001
2015    3        2    17  33    4.7467   480.5    4.820      33.999
2015    3        2    17  38    4.7511   480.4    4.829      33.997
2015    3        2    17  43    4.7553   480.2    4.838      33.995
2015    3        2    17  49    4.7597   480.1    4.847      33.994
2015    3        2    17  54    4.7641   480.0    4.856      33.993
2015    3        2    18   0    4.7685   479.8    4.865      33.992
2015    3        2    18   5    4.7729   479.7    4.874      33.990
2015    3        2    18  10    4.7771   479.6    4.883      33.989
2015    3        2    18  16    4.7815   479.5    4.892      33.988
2015    3        2    18  21    4.7859   479.3    4.901      33.987
2015    3        2    18  27    4.7902   479.2    4.910      33.986
2015    3        2    18  32    4.7946   479.1    4.918      33.986
2015    3        2    18  37    4.7989   479.0    4.927      33.985
2015    3        2    18  43    4.8034   478.8    4.936      33.984
2015    3        2    18  48    4.8078   478.7    4.945      33.983
2015    3        2    18  54    4.8122   478.6    4.953      33.982
2015    3        2    18  59    4.8166   478.5    4.962      33.981
2015    3        2    19   4    4.8210   478.4    4.970      33.980
2015    3        2    19  10    4.8253   478.2    4.979      33.979
2015    3        2    19  15    4.8298   478.1    4.988      33.978
2015    3        2    19  21    4.8341   478.0    4.996      33.977
2015    3        2    19  26    4.8385   477.9    5.004      33.977
2015    3        2    19  31    4.8429   477.8    5.013      33.976
2015    3        2    19  37    4.8474   477.7    5.021      33.975
2015    3        2    19  42    4.8519   477.6    5.030      33.975
2015    3        2    19  48    4.8563   477.5    5.038      33.974
2015    3        2    19  53    4.8607   477.3    5.046      33.974
2015    3        2    19  58    4.8652   477.2    5.054      33.974
2015    3        2    20   4    4.8696   477.1    5.062      33.973
2015    3        2    20   9    4.8741   477.0    5.070      33.973
2015    3        2    20  14    4.8786   476.9    5.078      33.974
2015    3        2    20  20    4.8831   476.8    5.086      33.974
2015    3        2    20  25    4.8876   476.7    5.094      33.974
2015    3        2    20  31    4.8921   476.6    5.102      33.975
2015    3        2    20  36    4.8966   476.5    5.110      33.976
2015    3        2    20  41    4.9012   476.4    5.118      33.977
2015    3        2    20  47    4.9057   476.3    5.126      33.978
2015    3        2    20  52    4.9103   476.2    5.134      33.979
2015    3        2    20  58    4.9148   476.1    5.142      33.981
2015    3        2    21   3    4.9194   476.0    5.149      33.983
2015    3        2    21   8    4.9240   475.9    5.157      33.985
2015    3        2    21  14    4.9287   475.8    5.165      33.987
2015    3        2    21  19    4.9333   475.7    5.172      33.990
2015    3        2    21  25    4.9379   475.6    5.180      33.992
2015    3        2    21  30    4.9426   475.5    5.188      33.996
2015    3        2    21  35    4.9472   475.4    5.195      33.999
2015    3        2    21  41    4.9519   475.3    5.203      34.002
2015    3        2    21  46    4.9566   475.2    5.211      34.006
2015    3        2    21  52    4.9613   475.1    5.218      34.010
2015    3        2    21  57    4.9660   475.1    5.226      34.014
2015    3        2    22   2    4.9708   475.0    5.234      34.019
2015    3        2    22   8    4.9755   474.9    5.241      34.024
2015    3        2    22  13    4.9803   474.8    5.249      34.029
2015    3        2    22  19    4.9851   474.7    5.257      34.034
2015    3        2    22  24    4.9899   474.6    5.264      34.039
2015    3        2    22  29    4.9947   474.5    5.272      34.045
2015    3        2    22  35    4.9995   474.4    5.280      34.050
2015    3        2    22  40    5.0043   474.4    5.287      34.057
2015    3        2    22  46    5.0092   474.3    5.295      34.063
2015    3        2    22  51    5.0141   474.2    5.303      34.069
2015    3        2    22  56    5.0189   474.1    5.311      34.076
2015    3        2    23   2    5.0239   474.0    5.319      34.083
2015    3        2    23   7    5.0287   474.0    5.327      34.090
2015    3        2    23  13    5.0337   473.9    5.335      34.098
2015    3        2    23  18    5.0386   473.8    5.343      34.106
2015    3        2    23  23    5.0435   473.7    5.350      34.114
2015    3        2    23  29    5.0484   473.7    5.358      34.123
2015    3        2    23  34    5.0535   473.6    5.366      34.132
2015    3        2    23  40    5.0584   473.5    5.374      34.142
2015    3        2    23  45    5.0633   473.5    5.382      34.152
2015    3        2    23  50    5.0683   473.4    5.390      34.162
2015    3        2    23  56    5.0733   473.3    5.398      34.173
2015    3        3     0   1    5.0782   473.3    5.406      34.185
2015    3        3     0   6    5.0831   473.2    5.414      34.197
2015    3        3     0  12    5.0881   473.2    5.421      34.209
2015    3        3     0  17    5.0930   473.1    5.429      34.222
2015    3        3     0  23    5.0979   473.0    5.437      34.235
2015    3        3     0  28    5.1029   473.0    5.444      34.249
2015    3        3     0  33    5.1078   472.9    5.452      34.263
2015    3        3     0  39    5.1127   472.9    5.459      34.276
2015    3        3     0  44    5.1175   472.8    5.466      34.290
2015    3        3     0  50    5.1224   472.8    5.473      34.304
2015    3        3     0  55    5.1272   472.7    5.480      34.318
2015    3        3     1   0    5.1321   472.6    5.487      34.332
2015    3        3     1   6    5.1370   472.6    5.494      34.345
2015    3        3     1  11    5.1418   472.5    5.501      34.359
2015    3        3     1  17    5.1466   472.5    5.508      34.372
2015    3        3     1  22    5.1514   472.4    5.515      34.386
2015    3        3     1  27    5.1563   472.4    5.521      34.399
2015    3        3     1  33    5.1611   472.3    5.528      34.412
2015    3        3     1  38    5.1659   472.3    5.535      34.424
2015    3        3     1  44    5.1707   472.2    5.541      34.437
2015    3        3     1  49    5.1755   472.2    5.548      34.450
2015    3        3     1  54    5.1803   472.1    5.554      34.462
2015    3        3     2   0    5.1851   472.1    5.561      34.474
2015    3        3     2   5    5.1899   472.0    5.567      34.486
2015    3        3     2  11    5.1946   472.0    5.574      34.498
