year    month   day   hour  minute  B_enl V_enl   n_enl       T_enl
[year] [month] [day] [hour][minute] [nT]  [km/s]  [cm-3]      [kK]
2014   12       24     0   3    8.0909   386.1    9.471      49.992
2014   12       24     0   8    8.0960   386.2    9.476      50.048
2014   12       24     0  13    8.1011   386.2    9.482      50.105
2014   12       24     0  18    8.1062   386.3    9.488      50.163
2014   12       24     0  23    8.1113   386.4    9.494      50.221
2014   12       24     0  28    8.1162   386.5    9.501      50.283
2014   12       24     0  33    8.1211   386.5    9.507      50.347
2014   12       24     0  38    8.1260   386.6    9.514      50.414
2014   12       24     0  43    8.1308   386.7    9.521      50.483
2014   12       24     0  48    8.1355   386.8    9.527      50.555
2014   12       24     0  53    8.1401   386.9    9.534      50.630
2014   12       24     0  58    8.1447   387.0    9.540      50.706
2014   12       24     1   3    8.1492   387.1    9.546      50.784
2014   12       24     1   8    8.1536   387.1    9.552      50.864
2014   12       24     1  13    8.1580   387.2    9.557      50.946
2014   12       24     1  18    8.1623   387.3    9.562      51.027
2014   12       24     1  23    8.1665   387.4    9.567      51.108
2014   12       24     1  28    8.1707   387.5    9.572      51.187
2014   12       24     1  33    8.1747   387.6    9.576      51.265
2014   12       24     1  38    8.1788   387.7    9.579      51.343
2014   12       24     1  43    8.1827   387.8    9.583      51.420
2014   12       24     1  48    8.1866   387.9    9.586      51.496
2014   12       24     1  53    8.1904   388.0    9.588      51.571
2014   12       24     1  58    8.1942   388.1    9.590      51.645
2014   12       24     2   3    8.1979   388.2    9.592      51.719
2014   12       24     2   8    8.2015   388.3    9.594      51.791
2014   12       24     2  13    8.2052   388.4    9.595      51.862
2014   12       24     2  18    8.2088   388.5    9.596      51.933
2014   12       24     2  23    8.2123   388.6    9.597      52.002
2014   12       24     2  27    8.2159   388.7    9.597      52.071
2014   12       24     2  32    8.2194   388.8    9.598      52.139
2014   12       24     2  37    8.2229   388.9    9.598      52.206
2014   12       24     2  42    8.2263   389.0    9.597      52.272
2014   12       24     2  47    8.2298   389.0    9.597      52.337
2014   12       24     2  52    8.2332   389.1    9.596      52.402
2014   12       24     2  57    8.2366   389.2    9.595      52.466
2014   12       24     3   2    8.2400   389.3    9.594      52.529
2014   12       24     3   7    8.2434   389.4    9.593      52.592
2014   12       24     3  12    8.2468   389.5    9.592      52.654
2014   12       24     3  17    8.2501   389.6    9.590      52.716
2014   12       24     3  22    8.2535   389.7    9.589      52.777
2014   12       24     3  27    8.2568   389.9    9.587      52.837
2014   12       24     3  32    8.2601   390.0    9.585      52.897
2014   12       24     3  37    8.2635   390.1    9.583      52.956
2014   12       24     3  42    8.2668   390.2    9.581      53.015
2014   12       24     3  47    8.2700   390.3    9.578      53.073
2014   12       24     3  52    8.2733   390.4    9.576      53.131
2014   12       24     3  57    8.2766   390.5    9.574      53.189
2014   12       24     4   2    8.2799   390.6    9.571      53.246
2014   12       24     4   7    8.2831   390.7    9.568      53.303
2014   12       24     4  12    8.2864   390.8    9.566      53.359
2014   12       24     4  17    8.2896   390.9    9.563      53.415
2014   12       24     4  22    8.2929   391.0    9.560      53.471
2014   12       24     4  27    8.2961   391.1    9.557      53.526
2014   12       24     4  32    8.2993   391.2    9.555      53.581
2014   12       24     4  37    8.3026   391.3    9.552      53.636
2014   12       24     4  42    8.3058   391.4    9.549      53.690
2014   12       24     4  47    8.3090   391.5    9.546      53.745
2014   12       24     4  52    8.3122   391.6    9.543      53.799
2014   12       24     4  57    8.3155   391.7    9.540      53.852
2014   12       24     5   2    8.3187   391.9    9.537      53.906
2014   12       24     5   7    8.3219   392.0    9.534      53.959
2014   12       24     5  12    8.3252   392.1    9.531      54.012
2014   12       24     5  17    8.3284   392.2    9.528      54.065
2014   12       24     5  21    8.3317   392.3    9.525      54.118
2014   12       24     5  26    8.3350   392.4    9.523      54.171
2014   12       24     5  31    8.3383   392.5    9.520      54.224
2014   12       24     5  36    8.3416   392.6    9.517      54.276
2014   12       24     5  41    8.3450   392.7    9.514      54.329
2014   12       24     5  46    8.3483   392.8    9.512      54.382
2014   12       24     5  51    8.3517   392.9    9.509      54.434
2014   12       24     5  56    8.3552   393.0    9.507      54.487
2014   12       24     6   1    8.3587   393.2    9.505      54.541
2014   12       24     6   6    8.3622   393.3    9.503      54.594
2014   12       24     6  11    8.3658   393.4    9.501      54.648
2014   12       24     6  16    8.3694   393.5    9.499      54.702
2014   12       24     6  21    8.3731   393.6    9.498      54.756
2014   12       24     6  26    8.3769   393.7    9.496      54.811
2014   12       24     6  31    8.3807   393.8    9.495      54.866
2014   12       24     6  36    8.3845   394.0    9.494      54.922
2014   12       24     6  41    8.3884   394.1    9.494      54.978
2014   12       24     6  46    8.3924   394.2    9.494      55.035
2014   12       24     6  51    8.3963   394.3    9.494      55.092
2014   12       24     6  56    8.4003   394.4    9.494      55.150
2014   12       24     7   1    8.4043   394.6    9.495      55.209
2014   12       24     7   6    8.4083   394.7    9.496      55.268
2014   12       24     7  11    8.4123   394.8    9.497      55.328
2014   12       24     7  16    8.4164   394.9    9.499      55.389
2014   12       24     7  21    8.4204   395.1    9.501      55.453
2014   12       24     7  26    8.4244   395.2    9.503      55.519
2014   12       24     7  31    8.4284   395.3    9.506      55.587
2014   12       24     7  36    8.4324   395.5    9.508      55.657
2014   12       24     7  41    8.4364   395.6    9.511      55.729
2014   12       24     7  46    8.4403   395.8    9.513      55.803
2014   12       24     7  51    8.4442   395.9    9.516      55.877
2014   12       24     7  56    8.4480   396.0    9.519      55.953
2014   12       24     8   1    8.4518   396.2    9.523      56.029
2014   12       24     8   5    8.4555   396.3    9.526      56.108
2014   12       24     8  10    8.4591   396.5    9.529      56.187
2014   12       24     8  15    8.4626   396.6    9.532      56.268
2014   12       24     8  20    8.4661   396.7    9.535      56.349
2014   12       24     8  25    8.4695   396.9    9.538      56.432
2014   12       24     8  30    8.4728   397.0    9.541      56.515
2014   12       24     8  35    8.4760   397.2    9.543      56.599
2014   12       24     8  40    8.4792   397.3    9.545      56.685
2014   12       24     8  45    8.4823   397.5    9.547      56.771
2014   12       24     8  50    8.4854   397.6    9.549      56.858
2014   12       24     8  55    8.4884   397.8    9.550      56.943
2014   12       24     9   0    8.4914   398.0    9.551      57.028
2014   12       24     9   5    8.4943   398.1    9.552      57.112
2014   12       24     9  10    8.4972   398.3    9.553      57.196
2014   12       24     9  15    8.5001   398.4    9.553      57.278
2014   12       24     9  20    8.5029   398.6    9.553      57.360
2014   12       24     9  25    8.5057   398.7    9.552      57.442
2014   12       24     9  30    8.5084   398.9    9.552      57.522
2014   12       24     9  35    8.5111   399.0    9.551      57.603
2014   12       24     9  40    8.5138   399.2    9.550      57.682
2014   12       24     9  45    8.5164   399.3    9.549      57.761
2014   12       24     9  50    8.5190   399.5    9.547      57.839
2014   12       24     9  55    8.5216   399.6    9.545      57.917
2014   12       24    10   0    8.5241   399.8    9.543      57.993
2014   12       24    10   5    8.5267   400.0    9.541      58.070
2014   12       24    10  10    8.5291   400.1    9.538      58.145
2014   12       24    10  15    8.5316   400.3    9.536      58.220
2014   12       24    10  20    8.5340   400.4    9.533      58.295
2014   12       24    10  25    8.5364   400.6    9.530      58.369
2014   12       24    10  30    8.5387   400.8    9.527      58.442
2014   12       24    10  35    8.5411   400.9    9.523      58.515
2014   12       24    10  40    8.5433   401.1    9.520      58.587
2014   12       24    10  45    8.5455   401.3    9.516      58.659
2014   12       24    10  50    8.5477   401.4    9.512      58.730
2014   12       24    10  54    8.5499   401.6    9.508      58.801
2014   12       24    10  59    8.5520   401.8    9.504      58.871
2014   12       24    11   4    8.5541   401.9    9.500      58.941
2014   12       24    11   9    8.5561   402.1    9.495      59.009
2014   12       24    11  14    8.5580   402.3    9.490      59.078
2014   12       24    11  19    8.5600   402.4    9.486      59.145
2014   12       24    11  24    8.5618   402.6    9.481      59.213
2014   12       24    11  29    8.5637   402.8    9.476      59.279
2014   12       24    11  34    8.5655   403.0    9.471      59.345
2014   12       24    11  39    8.5672   403.1    9.465      59.411
2014   12       24    11  44    8.5689   403.3    9.460      59.475
2014   12       24    11  49    8.5706   403.5    9.455      59.539
2014   12       24    11  54    8.5722   403.7    9.449      59.603
2014   12       24    11  59    8.5737   403.8    9.444      59.666
2014   12       24    12   4    8.5752   404.0    9.438      59.728
2014   12       24    12   9    8.5767   404.2    9.432      59.790
2014   12       24    12  14    8.5781   404.4    9.426      59.851
2014   12       24    12  19    8.5795   404.6    9.420      59.911
2014   12       24    12  24    8.5808   404.7    9.415      59.971
2014   12       24    12  29    8.5821   404.9    9.409      60.030
2014   12       24    12  34    8.5834   405.1    9.403      60.088
2014   12       24    12  39    8.5846   405.3    9.397      60.146
2014   12       24    12  44    8.5858   405.4    9.391      60.203
2014   12       24    12  49    8.5869   405.6    9.384      60.259
2014   12       24    12  54    8.5880   405.8    9.378      60.315
2014   12       24    12  59    8.5891   406.0    9.372      60.369
2014   12       24    13   4    8.5901   406.1    9.366      60.424
2014   12       24    13   9    8.5911   406.3    9.360      60.477
2014   12       24    13  14    8.5921   406.5    9.354      60.530
2014   12       24    13  19    8.5931   406.7    9.347      60.583
2014   12       24    13  24    8.5940   406.8    9.341      60.634
2014   12       24    13  29    8.5949   407.0    9.335      60.686
2014   12       24    13  34    8.5959   407.2    9.329      60.737
2014   12       24    13  39    8.5968   407.4    9.323      60.787
2014   12       24    13  43    8.5976   407.6    9.317      60.837
2014   12       24    13  48    8.5985   407.7    9.312      60.887
2014   12       24    13  53    8.5994   407.9    9.306      60.936
2014   12       24    13  58    8.6003   408.1    9.300      60.985
2014   12       24    14   3    8.6012   408.3    9.295      61.033
2014   12       24    14   8    8.6021   408.4    9.289      61.081
2014   12       24    14  13    8.6029   408.6    9.284      61.130
2014   12       24    14  18    8.6038   408.8    9.279      61.178
2014   12       24    14  23    8.6046   409.0    9.274      61.226
2014   12       24    14  28    8.6055   409.2    9.269      61.274
2014   12       24    14  33    8.6062   409.3    9.264      61.321
2014   12       24    14  38    8.6069   409.5    9.260      61.368
2014   12       24    14  43    8.6076   409.7    9.256      61.415
2014   12       24    14  48    8.6082   409.9    9.251      61.462
2014   12       24    14  53    8.6088   410.1    9.247      61.510
2014   12       24    14  58    8.6093   410.3    9.243      61.559
2014   12       24    15   3    8.6097   410.4    9.240      61.610
2014   12       24    15   8    8.6100   410.6    9.236      61.661
2014   12       24    15  13    8.6103   410.8    9.232      61.714
2014   12       24    15  18    8.6106   411.0    9.228      61.768
2014   12       24    15  23    8.6107   411.2    9.224      61.823
2014   12       24    15  28    8.6108   411.4    9.219      61.880
2014   12       24    15  33    8.6108   411.6    9.215      61.937
2014   12       24    15  38    8.6108   411.8    9.210      61.995
2014   12       24    15  43    8.6107   412.0    9.206      62.052
2014   12       24    15  48    8.6105   412.2    9.201      62.109
2014   12       24    15  53    8.6102   412.4    9.196      62.165
2014   12       24    15  58    8.6099   412.6    9.190      62.221
2014   12       24    16   3    8.6095   412.8    9.185      62.276
2014   12       24    16   8    8.6090   413.1    9.179      62.330
2014   12       24    16  13    8.6085   413.3    9.173      62.384
2014   12       24    16  18    8.6079   413.5    9.167      62.438
2014   12       24    16  23    8.6073   413.7    9.161      62.491
2014   12       24    16  27    8.6066   413.9    9.155      62.543
2014   12       24    16  32    8.6059   414.1    9.149      62.595
2014   12       24    16  37    8.6051   414.3    9.142      62.646
2014   12       24    16  42    8.6043   414.5    9.136      62.697
2014   12       24    16  47    8.6036   414.7    9.129      62.747
2014   12       24    16  52    8.6027   414.9    9.122      62.797
2014   12       24    16  57    8.6018   415.1    9.115      62.847
2014   12       24    17   2    8.6009   415.3    9.108      62.896
2014   12       24    17   7    8.6000   415.5    9.101      62.944
2014   12       24    17  12    8.5990   415.6    9.094      62.992
2014   12       24    17  17    8.5981   415.8    9.087      63.040
2014   12       24    17  22    8.5970   416.0    9.079      63.088
2014   12       24    17  27    8.5960   416.2    9.072      63.135
2014   12       24    17  32    8.5949   416.4    9.064      63.182
2014   12       24    17  37    8.5938   416.6    9.057      63.228
2014   12       24    17  42    8.5926   416.8    9.049      63.275
2014   12       24    17  47    8.5914   417.0    9.042      63.321
2014   12       24    17  52    8.5901   417.2    9.034      63.367
2014   12       24    17  57    8.5888   417.4    9.026      63.412
2014   12       24    18   2    8.5875   417.6    9.018      63.458
2014   12       24    18   7    8.5861   417.8    9.010      63.503
2014   12       24    18  12    8.5846   418.0    9.002      63.548
2014   12       24    18  17    8.5832   418.2    8.994      63.592
2014   12       24    18  22    8.5816   418.4    8.986      63.637
2014   12       24    18  27    8.5800   418.6    8.978      63.681
2014   12       24    18  32    8.5783   418.8    8.970      63.725
2014   12       24    18  37    8.5766   419.0    8.962      63.769
2014   12       24    18  42    8.5748   419.2    8.953      63.813
2014   12       24    18  47    8.5730   419.4    8.945      63.856
2014   12       24    18  52    8.5711   419.6    8.937      63.899
2014   12       24    18  57    8.5692   419.8    8.928      63.942
2014   12       24    19   2    8.5672   420.0    8.920      63.984
2014   12       24    19   7    8.5651   420.2    8.911      64.026
2014   12       24    19  12    8.5630   420.4    8.902      64.067
2014   12       24    19  17    8.5608   420.6    8.893      64.108
2014   12       24    19  21    8.5586   420.8    8.885      64.147
2014   12       24    19  26    8.5563   421.0    8.876      64.187
2014   12       24    19  31    8.5540   421.2    8.867      64.226
2014   12       24    19  36    8.5516   421.4    8.858      64.264
2014   12       24    19  41    8.5491   421.6    8.849      64.301
2014   12       24    19  46    8.5466   421.8    8.839      64.338
2014   12       24    19  51    8.5440   422.0    8.830      64.374
2014   12       24    19  56    8.5413   422.2    8.821      64.409
2014   12       24    20   1    8.5386   422.4    8.812      64.443
2014   12       24    20   6    8.5359   422.6    8.802      64.477
2014   12       24    20  11    8.5330   422.8    8.793      64.510
2014   12       24    20  16    8.5302   423.0    8.783      64.543
2014   12       24    20  21    8.5272   423.2    8.774      64.574
2014   12       24    20  26    8.5242   423.4    8.764      64.605
2014   12       24    20  31    8.5212   423.6    8.755      64.635
2014   12       24    20  36    8.5180   423.8    8.745      64.664
2014   12       24    20  41    8.5148   424.0    8.735      64.692
2014   12       24    20  46    8.5116   424.2    8.726      64.720
2014   12       24    20  51    8.5083   424.4    8.716      64.747
2014   12       24    20  56    8.5050   424.5    8.706      64.773
2014   12       24    21   1    8.5016   424.7    8.697      64.798
2014   12       24    21   6    8.4982   424.9    8.687      64.823
2014   12       24    21  11    8.4947   425.1    8.677      64.846
2014   12       24    21  16    8.4911   425.3    8.668      64.869
2014   12       24    21  21    8.4875   425.5    8.658      64.891
2014   12       24    21  26    8.4839   425.7    8.648      64.913
2014   12       24    21  31    8.4802   425.9    8.638      64.933
2014   12       24    21  36    8.4764   426.0    8.628      64.953
2014   12       24    21  41    8.4726   426.2    8.619      64.973
2014   12       24    21  46    8.4688   426.4    8.609      64.991
2014   12       24    21  51    8.4649   426.6    8.599      65.009
2014   12       24    21  56    8.4609   426.8    8.589      65.027
2014   12       24    22   1    8.4569   427.0    8.580      65.043
2014   12       24    22   5    8.4529   427.1    8.570      65.059
2014   12       24    22  10    8.4488   427.3    8.560      65.075
2014   12       24    22  15    8.4447   427.5    8.550      65.089
2014   12       24    22  20    8.4404   427.7    8.540      65.103
2014   12       24    22  25    8.4362   427.9    8.531      65.117
2014   12       24    22  30    8.4319   428.0    8.521      65.130
2014   12       24    22  35    8.4276   428.2    8.511      65.142
2014   12       24    22  40    8.4233   428.4    8.501      65.153
2014   12       24    22  45    8.4190   428.6    8.492      65.164
2014   12       24    22  50    8.4146   428.8    8.482      65.175
2014   12       24    22  55    8.4102   428.9    8.472      65.184
2014   12       24    23   0    8.4058   429.1    8.462      65.194
2014   12       24    23   5    8.4014   429.3    8.452      65.203
2014   12       24    23  10    8.3969   429.5    8.442      65.211
2014   12       24    23  15    8.3925   429.6    8.433      65.218
2014   12       24    23  20    8.3880   429.8    8.423      65.225
2014   12       24    23  25    8.3836   430.0    8.413      65.232
2014   12       24    23  30    8.3791   430.1    8.403      65.238
2014   12       24    23  35    8.3746   430.3    8.393      65.243
2014   12       24    23  40    8.3701   430.5    8.383      65.248
2014   12       24    23  45    8.3657   430.7    8.373      65.252
2014   12       24    23  50    8.3612   430.8    8.364      65.255
2014   12       24    23  55    8.3567   431.0    8.354      65.258
2014   12       25     0   0    8.3522   431.2    8.344      65.261
2014   12       25     0   5    8.3477   431.3    8.334      65.263
2014   12       25     0  10    8.3432   431.5    8.324      65.264
