year    month   day   hour  minute  B_enl V_enl   n_enl       T_enl
[year] [month] [day] [hour][minute] [nT]  [km/s]  [cm-3]      [kK]
2014   12       28     0   4    6.6723   447.6    6.452      46.328
2014   12       28     0   9    6.6742   447.5    6.457      46.316
2014   12       28     0  14    6.6762   447.4    6.461      46.305
2014   12       28     0  19    6.6782   447.3    6.466      46.293
2014   12       28     0  24    6.6802   447.2    6.471      46.282
2014   12       28     0  29    6.6822   447.1    6.476      46.270
2014   12       28     0  34    6.6843   447.0    6.480      46.259
2014   12       28     0  39    6.6864   446.9    6.485      46.248
2014   12       28     0  44    6.6884   446.8    6.490      46.236
2014   12       28     0  49    6.6906   446.7    6.495      46.225
2014   12       28     0  54    6.6927   446.6    6.500      46.214
2014   12       28     0  59    6.6948   446.5    6.505      46.202
2014   12       28     1   4    6.6970   446.4    6.510      46.191
2014   12       28     1   9    6.6991   446.3    6.515      46.179
2014   12       28     1  14    6.7013   446.2    6.520      46.168
2014   12       28     1  19    6.7035   446.1    6.525      46.157
2014   12       28     1  24    6.7057   446.0    6.530      46.145
2014   12       28     1  29    6.7079   445.9    6.535      46.134
2014   12       28     1  34    6.7101   445.8    6.540      46.122
2014   12       28     1  39    6.7124   445.7    6.545      46.111
2014   12       28     1  44    6.7146   445.6    6.550      46.099
2014   12       28     1  49    6.7168   445.5    6.555      46.087
2014   12       28     1  53    6.7191   445.4    6.560      46.076
2014   12       28     1  58    6.7214   445.3    6.565      46.064
2014   12       28     2   3    6.7237   445.2    6.571      46.052
2014   12       28     2   8    6.7260   445.1    6.576      46.040
2014   12       28     2  13    6.7283   445.0    6.581      46.028
2014   12       28     2  18    6.7307   444.9    6.586      46.016
2014   12       28     2  23    6.7330   444.8    6.592      46.005
2014   12       28     2  28    6.7354   444.7    6.597      45.992
2014   12       28     2  33    6.7378   444.6    6.602      45.980
2014   12       28     2  38    6.7402   444.5    6.608      45.968
2014   12       28     2  43    6.7427   444.4    6.613      45.956
2014   12       28     2  48    6.7451   444.3    6.619      45.944
2014   12       28     2  53    6.7476   444.2    6.624      45.933
2014   12       28     2  58    6.7501   444.1    6.630      45.921
2014   12       28     3   3    6.7527   444.0    6.635      45.909
2014   12       28     3   8    6.7552   443.9    6.641      45.898
2014   12       28     3  13    6.7578   443.8    6.647      45.887
2014   12       28     3  18    6.7604   443.7    6.653      45.876
2014   12       28     3  23    6.7631   443.6    6.658      45.865
2014   12       28     3  28    6.7658   443.5    6.664      45.854
2014   12       28     3  33    6.7685   443.4    6.670      45.844
2014   12       28     3  38    6.7713   443.3    6.676      45.834
2014   12       28     3  42    6.7741   443.2    6.683      45.824
2014   12       28     3  47    6.7770   443.1    6.689      45.815
2014   12       28     3  52    6.7799   443.0    6.695      45.806
2014   12       28     3  57    6.7828   442.9    6.702      45.797
2014   12       28     4   2    6.7858   442.8    6.708      45.789
2014   12       28     4   7    6.7888   442.6    6.715      45.781
2014   12       28     4  12    6.7919   442.5    6.722      45.774
2014   12       28     4  17    6.7950   442.4    6.729      45.768
2014   12       28     4  22    6.7981   442.3    6.736      45.762
2014   12       28     4  27    6.8013   442.2    6.743      45.757
2014   12       28     4  32    6.8045   442.1    6.750      45.752
2014   12       28     4  37    6.8078   442.1    6.757      45.748
2014   12       28     4  42    6.8111   442.0    6.764      45.744
2014   12       28     4  47    6.8144   441.9    6.772      45.741
2014   12       28     4  52    6.8177   441.8    6.779      45.738
2014   12       28     4  57    6.8211   441.7    6.787      45.736
2014   12       28     5   2    6.8245   441.6    6.794      45.734
2014   12       28     5   7    6.8280   441.5    6.802      45.733
2014   12       28     5  12    6.8315   441.4    6.810      45.732
2014   12       28     5  17    6.8350   441.3    6.817      45.731
2014   12       28     5  22    6.8385   441.2    6.825      45.731
2014   12       28     5  27    6.8422   441.1    6.833      45.731
2014   12       28     5  32    6.8458   441.0    6.841      45.731
2014   12       28     5  37    6.8495   440.9    6.849      45.732
2014   12       28     5  41    6.8531   440.9    6.857      45.733
2014   12       28     5  46    6.8569   440.8    6.866      45.735
2014   12       28     5  51    6.8606   440.7    6.874      45.737
2014   12       28     5  56    6.8644   440.6    6.882      45.741
2014   12       28     6   1    6.8682   440.5    6.890      45.745
2014   12       28     6   6    6.8720   440.5    6.898      45.749
2014   12       28     6  11    6.8758   440.4    6.906      45.754
2014   12       28     6  16    6.8796   440.3    6.913      45.760
2014   12       28     6  21    6.8834   440.3    6.921      45.765
2014   12       28     6  26    6.8872   440.2    6.929      45.771
2014   12       28     6  31    6.8910   440.1    6.936      45.778
2014   12       28     6  36    6.8948   440.0    6.944      45.783
2014   12       28     6  41    6.8986   440.0    6.951      45.789
2014   12       28     6  46    6.9025   439.9    6.959      45.795
2014   12       28     6  51    6.9063   439.8    6.966      45.800
2014   12       28     6  56    6.9102   439.8    6.973      45.806
2014   12       28     7   1    6.9141   439.7    6.980      45.811
2014   12       28     7   6    6.9180   439.6    6.988      45.816
2014   12       28     7  11    6.9218   439.6    6.995      45.821
2014   12       28     7  16    6.9257   439.5    7.002      45.825
2014   12       28     7  21    6.9297   439.4    7.009      45.830
2014   12       28     7  26    6.9336   439.4    7.016      45.834
2014   12       28     7  31    6.9375   439.3    7.023      45.839
2014   12       28     7  36    6.9415   439.2    7.030      45.843
2014   12       28     7  41    6.9454   439.2    7.037      45.847
2014   12       28     7  46    6.9494   439.1    7.044      45.852
2014   12       28     7  51    6.9534   439.0    7.051      45.856
2014   12       28     7  56    6.9573   439.0    7.058      45.860
2014   12       28     8   1    6.9613   438.9    7.064      45.864
2014   12       28     8   6    6.9653   438.9    7.071      45.868
2014   12       28     8  10    6.9692   438.8    7.078      45.873
2014   12       28     8  15    6.9732   438.7    7.085      45.877
2014   12       28     8  20    6.9771   438.7    7.092      45.881
2014   12       28     8  25    6.9811   438.6    7.099      45.885
2014   12       28     8  30    6.9850   438.6    7.105      45.889
2014   12       28     8  35    6.9889   438.5    7.112      45.893
2014   12       28     8  40    6.9928   438.5    7.119      45.897
2014   12       28     8  45    6.9967   438.4    7.125      45.901
2014   12       28     8  50    7.0006   438.4    7.132      45.905
2014   12       28     8  55    7.0045   438.3    7.139      45.908
2014   12       28     9   0    7.0083   438.3    7.145      45.912
2014   12       28     9   5    7.0122   438.2    7.152      45.916
2014   12       28     9  10    7.0160   438.2    7.158      45.919
2014   12       28     9  15    7.0198   438.1    7.165      45.922
2014   12       28     9  20    7.0236   438.1    7.171      45.926
2014   12       28     9  25    7.0274   438.0    7.178      45.929
2014   12       28     9  30    7.0312   437.9    7.184      45.932
2014   12       28     9  35    7.0349   437.9    7.190      45.934
2014   12       28     9  40    7.0387   437.8    7.197      45.937
2014   12       28     9  45    7.0424   437.8    7.203      45.939
2014   12       28     9  50    7.0461   437.7    7.209      45.941
2014   12       28     9  55    7.0498   437.7    7.215      45.943
2014   12       28    10   0    7.0535   437.6    7.221      45.945
2014   12       28    10   5    7.0572   437.6    7.228      45.947
2014   12       28    10  10    7.0609   437.5    7.234      45.948
2014   12       28    10  14    7.0646   437.5    7.240      45.950
2014   12       28    10  19    7.0682   437.4    7.246      45.951
2014   12       28    10  24    7.0719   437.3    7.252      45.952
2014   12       28    10  29    7.0756   437.3    7.258      45.953
2014   12       28    10  34    7.0793   437.2    7.264      45.954
2014   12       28    10  39    7.0829   437.2    7.270      45.955
2014   12       28    10  44    7.0866   437.1    7.276      45.956
2014   12       28    10  49    7.0902   437.1    7.282      45.957
2014   12       28    10  54    7.0939   437.0    7.289      45.958
2014   12       28    10  59    7.0976   436.9    7.295      45.959
2014   12       28    11   4    7.1013   436.9    7.301      45.960
2014   12       28    11   9    7.1050   436.8    7.307      45.962
2014   12       28    11  14    7.1087   436.8    7.314      45.964
2014   12       28    11  19    7.1124   436.7    7.320      45.966
2014   12       28    11  24    7.1161   436.7    7.326      45.968
2014   12       28    11  29    7.1199   436.6    7.333      45.971
2014   12       28    11  34    7.1237   436.5    7.339      45.975
2014   12       28    11  39    7.1274   436.5    7.346      45.979
2014   12       28    11  44    7.1312   436.4    7.352      45.983
2014   12       28    11  49    7.1351   436.4    7.359      45.988
2014   12       28    11  54    7.1389   436.3    7.366      45.993
2014   12       28    11  59    7.1427   436.3    7.372      45.999
2014   12       28    12   3    7.1466   436.2    7.379      46.005
2014   12       28    12   8    7.1505   436.2    7.386      46.012
2014   12       28    12  13    7.1544   436.1    7.393      46.019
2014   12       28    12  18    7.1583   436.1    7.400      46.027
2014   12       28    12  23    7.1622   436.0    7.407      46.035
2014   12       28    12  28    7.1662   436.0    7.414      46.044
2014   12       28    12  33    7.1701   435.9    7.421      46.053
2014   12       28    12  38    7.1741   435.9    7.428      46.062
2014   12       28    12  43    7.1782   435.8    7.436      46.072
2014   12       28    12  48    7.1822   435.8    7.443      46.083
2014   12       28    12  53    7.1863   435.7    7.451      46.093
2014   12       28    12  58    7.1905   435.7    7.458      46.105
2014   12       28    13   3    7.1947   435.7    7.466      46.117
2014   12       28    13   8    7.1988   435.6    7.474      46.129
2014   12       28    13  13    7.2030   435.6    7.481      46.143
2014   12       28    13  18    7.2072   435.6    7.489      46.157
2014   12       28    13  23    7.2115   435.5    7.497      46.172
2014   12       28    13  28    7.2157   435.5    7.505      46.188
2014   12       28    13  33    7.2199   435.5    7.513      46.204
2014   12       28    13  38    7.2241   435.4    7.520      46.222
2014   12       28    13  43    7.2283   435.4    7.528      46.240
2014   12       28    13  48    7.2324   435.4    7.535      46.259
2014   12       28    13  53    7.2365   435.4    7.543      46.277
2014   12       28    13  58    7.2406   435.3    7.550      46.296
2014   12       28    14   3    7.2447   435.3    7.557      46.315
2014   12       28    14   8    7.2487   435.3    7.564      46.334
2014   12       28    14  13    7.2528   435.3    7.572      46.352
2014   12       28    14  17    7.2568   435.3    7.579      46.370
2014   12       28    14  22    7.2608   435.3    7.585      46.388
2014   12       28    14  27    7.2648   435.2    7.592      46.406
2014   12       28    14  32    7.2687   435.2    7.599      46.424
2014   12       28    14  37    7.2727   435.2    7.606      46.441
2014   12       28    14  42    7.2766   435.2    7.612      46.458
2014   12       28    14  47    7.2805   435.2    7.619      46.475
2014   12       28    14  52    7.2844   435.1    7.626      46.492
2014   12       28    14  57    7.2884   435.1    7.632      46.508
2014   12       28    15   2    7.2923   435.1    7.639      46.524
2014   12       28    15   7    7.2962   435.1    7.645      46.540
2014   12       28    15  12    7.3001   435.1    7.652      46.556
2014   12       28    15  17    7.3040   435.1    7.658      46.573
2014   12       28    15  22    7.3078   435.1    7.665      46.589
2014   12       28    15  27    7.3117   435.1    7.671      46.605
2014   12       28    15  32    7.3155   435.0    7.677      46.622
2014   12       28    15  37    7.3193   435.0    7.684      46.639
2014   12       28    15  42    7.3231   435.0    7.690      46.657
2014   12       28    15  47    7.3268   435.0    7.696      46.675
2014   12       28    15  52    7.3305   435.0    7.702      46.693
2014   12       28    15  57    7.3342   435.0    7.708      46.711
2014   12       28    16   2    7.3379   435.0    7.714      46.731
2014   12       28    16   7    7.3415   435.0    7.719      46.750
2014   12       28    16  12    7.3452   435.0    7.725      46.770
2014   12       28    16  17    7.3487   435.0    7.730      46.791
2014   12       28    16  22    7.3522   435.0    7.736      46.811
2014   12       28    16  27    7.3557   435.0    7.741      46.832
2014   12       28    16  32    7.3592   435.0    7.747      46.852
2014   12       28    16  37    7.3626   435.1    7.752      46.873
2014   12       28    16  42    7.3660   435.1    7.757      46.892
2014   12       28    16  46    7.3694   435.1    7.762      46.912
2014   12       28    16  51    7.3727   435.1    7.767      46.932
2014   12       28    16  56    7.3760   435.1    7.772      46.951
2014   12       28    17   1    7.3792   435.1    7.777      46.971
2014   12       28    17   6    7.3825   435.1    7.782      46.989
2014   12       28    17  11    7.3857   435.1    7.787      47.008
2014   12       28    17  16    7.3888   435.1    7.792      47.026
2014   12       28    17  21    7.3920   435.1    7.796      47.044
2014   12       28    17  26    7.3951   435.1    7.801      47.062
2014   12       28    17  31    7.3982   435.1    7.806      47.079
2014   12       28    17  36    7.4013   435.1    7.810      47.097
2014   12       28    17  41    7.4043   435.1    7.815      47.114
2014   12       28    17  46    7.4074   435.1    7.819      47.130
2014   12       28    17  51    7.4104   435.1    7.824      47.147
2014   12       28    17  56    7.4134   435.1    7.828      47.163
2014   12       28    18   1    7.4164   435.1    7.833      47.178
2014   12       28    18   6    7.4193   435.1    7.837      47.194
2014   12       28    18  11    7.4223   435.1    7.842      47.209
2014   12       28    18  16    7.4252   435.1    7.846      47.225
2014   12       28    18  21    7.4281   435.1    7.850      47.240
2014   12       28    18  26    7.4310   435.1    7.855      47.255
2014   12       28    18  31    7.4339   435.1    7.859      47.270
2014   12       28    18  35    7.4368   435.1    7.864      47.284
2014   12       28    18  40    7.4397   435.1    7.868      47.299
2014   12       28    18  45    7.4425   435.1    7.872      47.313
2014   12       28    18  50    7.4454   435.1    7.877      47.327
2014   12       28    18  55    7.4482   435.1    7.881      47.341
2014   12       28    19   0    7.4511   435.1    7.885      47.355
2014   12       28    19   5    7.4539   435.1    7.890      47.369
2014   12       28    19  10    7.4568   435.1    7.894      47.383
2014   12       28    19  15    7.4596   435.1    7.899      47.396
2014   12       28    19  20    7.4625   435.1    7.903      47.410
2014   12       28    19  25    7.4654   435.1    7.908      47.423
2014   12       28    19  30    7.4683   435.1    7.912      47.437
2014   12       28    19  35    7.4712   435.1    7.917      47.451
2014   12       28    19  40    7.4741   435.1    7.921      47.465
2014   12       28    19  45    7.4771   435.1    7.926      47.480
2014   12       28    19  50    7.4800   435.1    7.930      47.494
2014   12       28    19  55    7.4831   435.1    7.935      47.509
2014   12       28    20   0    7.4861   435.1    7.940      47.524
2014   12       28    20   5    7.4892   435.1    7.944      47.539
2014   12       28    20  10    7.4923   435.1    7.949      47.554
2014   12       28    20  15    7.4954   435.1    7.953      47.570
2014   12       28    20  20    7.4986   435.1    7.958      47.585
2014   12       28    20  25    7.5018   435.1    7.963      47.600
2014   12       28    20  30    7.5051   435.1    7.968      47.616
2014   12       28    20  34    7.5083   435.1    7.973      47.632
2014   12       28    20  39    7.5116   435.1    7.977      47.648
2014   12       28    20  44    7.5148   435.1    7.982      47.665
2014   12       28    20  49    7.5181   435.1    7.987      47.682
2014   12       28    20  54    7.5213   435.1    7.992      47.700
2014   12       28    20  59    7.5245   435.2    7.996      47.718
2014   12       28    21   4    7.5277   435.2    8.001      47.736
2014   12       28    21   9    7.5309   435.2    8.005      47.754
2014   12       28    21  14    7.5340   435.2    8.010      47.773
2014   12       28    21  19    7.5370   435.2    8.014      47.791
2014   12       28    21  24    7.5401   435.2    8.018      47.808
2014   12       28    21  29    7.5431   435.3    8.022      47.825
2014   12       28    21  34    7.5461   435.3    8.026      47.843
2014   12       28    21  39    7.5490   435.3    8.029      47.859
2014   12       28    21  44    7.5519   435.3    8.033      47.875
2014   12       28    21  49    7.5548   435.4    8.036      47.891
2014   12       28    21  54    7.5576   435.4    8.040      47.907
2014   12       28    21  59    7.5604   435.4    8.043      47.921
2014   12       28    22   4    7.5632   435.4    8.046      47.936
2014   12       28    22   9    7.5659   435.4    8.049      47.950
2014   12       28    22  14    7.5686   435.5    8.052      47.963
2014   12       28    22  19    7.5713   435.5    8.055      47.976
2014   12       28    22  24    7.5740   435.5    8.058      47.989
2014   12       28    22  29    7.5766   435.5    8.061      48.002
2014   12       28    22  34    7.5792   435.6    8.064      48.014
2014   12       28    22  39    7.5818   435.6    8.066      48.026
2014   12       28    22  44    7.5844   435.6    8.069      48.038
2014   12       28    22  49    7.5870   435.6    8.071      48.050
2014   12       28    22  54    7.5895   435.6    8.074      48.061
2014   12       28    22  59    7.5921   435.7    8.076      48.072
2014   12       28    23   4    7.5946   435.7    8.079      48.083
2014   12       28    23   9    7.5971   435.7    8.081      48.094
2014   12       28    23  13    7.5996   435.7    8.084      48.106
2014   12       28    23  18    7.6021   435.8    8.086      48.117
2014   12       28    23  23    7.6046   435.8    8.088      48.129
2014   12       28    23  28    7.6070   435.8    8.091      48.140
2014   12       28    23  33    7.6094   435.9    8.093      48.152
2014   12       28    23  38    7.6118   435.9    8.095      48.165
2014   12       28    23  43    7.6142   435.9    8.097      48.178
2014   12       28    23  48    7.6165   435.9    8.100      48.191
2014   12       28    23  53    7.6188   436.0    8.102      48.205
2014   12       28    23  58    7.6211   436.0    8.104      48.220
2014   12       29     0   3    7.6233   436.1    8.105      48.234
2014   12       29     0   8    7.6255   436.1    8.107      48.249
