year    month   day   hour  minute  B_enl V_enl   n_enl       T_enl
[year] [month] [day] [hour][minute] [nT]  [km/s]  [cm-3]      [kK]
2015    5        4     0   2    4.1521   494.6    4.217      42.139
2015    5        4     0   8    4.1506   494.5    4.216      42.109
2015    5        4     0  14    4.1492   494.3    4.216      42.079
2015    5        4     0  20    4.1477   494.2    4.216      42.049
2015    5        4     0  25    4.1463   494.1    4.215      42.019
2015    5        4     0  31    4.1448   494.0    4.215      41.989
2015    5        4     0  37    4.1434   493.8    4.214      41.959
2015    5        4     0  42    4.1419   493.7    4.214      41.929
2015    5        4     0  48    4.1405   493.6    4.214      41.898
2015    5        4     0  54    4.1390   493.4    4.214      41.868
2015    5        4     1   0    4.1376   493.3    4.213      41.837
2015    5        4     1   5    4.1361   493.1    4.213      41.806
2015    5        4     1  11    4.1347   493.0    4.213      41.776
2015    5        4     1  17    4.1333   492.9    4.213      41.745
2015    5        4     1  22    4.1318   492.7    4.213      41.714
2015    5        4     1  28    4.1304   492.6    4.213      41.683
2015    5        4     1  34    4.1290   492.5    4.213      41.653
2015    5        4     1  40    4.1276   492.3    4.213      41.622
2015    5        4     1  45    4.1262   492.2    4.213      41.591
2015    5        4     1  51    4.1249   492.0    4.213      41.561
2015    5        4     1  57    4.1235   491.9    4.213      41.531
2015    5        4     2   3    4.1222   491.7    4.214      41.500
2015    5        4     2   8    4.1209   491.6    4.214      41.471
2015    5        4     2  14    4.1196   491.4    4.215      41.441
2015    5        4     2  20    4.1183   491.3    4.215      41.411
2015    5        4     2  25    4.1171   491.2    4.216      41.382
2015    5        4     2  31    4.1158   491.0    4.217      41.353
2015    5        4     2  37    4.1146   490.9    4.218      41.325
2015    5        4     2  43    4.1135   490.7    4.219      41.297
2015    5        4     2  48    4.1123   490.6    4.220      41.269
2015    5        4     2  54    4.1112   490.4    4.221      41.242
2015    5        4     3   0    4.1101   490.3    4.222      41.215
2015    5        4     3   5    4.1090   490.1    4.223      41.190
2015    5        4     3  11    4.1080   490.0    4.224      41.164
2015    5        4     3  17    4.1069   489.8    4.226      41.139
2015    5        4     3  23    4.1059   489.7    4.227      41.115
2015    5        4     3  28    4.1049   489.5    4.229      41.091
2015    5        4     3  34    4.1040   489.4    4.231      41.068
2015    5        4     3  40    4.1030   489.2    4.232      41.045
2015    5        4     3  46    4.1021   489.1    4.234      41.023
2015    5        4     3  51    4.1012   488.9    4.236      41.002
2015    5        4     3  57    4.1003   488.8    4.238      40.982
2015    5        4     4   3    4.0994   488.6    4.240      40.961
2015    5        4     4   8    4.0985   488.5    4.241      40.941
2015    5        4     4  14    4.0976   488.3    4.243      40.921
2015    5        4     4  20    4.0967   488.2    4.245      40.902
2015    5        4     4  26    4.0959   488.0    4.247      40.882
2015    5        4     4  31    4.0950   487.9    4.249      40.862
2015    5        4     4  37    4.0941   487.7    4.251      40.843
2015    5        4     4  43    4.0933   487.6    4.253      40.824
2015    5        4     4  48    4.0924   487.5    4.255      40.804
2015    5        4     4  54    4.0916   487.3    4.258      40.785
2015    5        4     5   0    4.0907   487.2    4.260      40.765
2015    5        4     5   6    4.0899   487.0    4.262      40.745
2015    5        4     5  11    4.0890   486.9    4.264      40.725
2015    5        4     5  17    4.0881   486.7    4.266      40.705
2015    5        4     5  23    4.0872   486.6    4.268      40.685
2015    5        4     5  29    4.0864   486.4    4.269      40.665
2015    5        4     5  34    4.0855   486.3    4.271      40.644
2015    5        4     5  40    4.0846   486.1    4.273      40.623
2015    5        4     5  46    4.0836   486.0    4.275      40.602
2015    5        4     5  51    4.0827   485.8    4.277      40.581
2015    5        4     5  57    4.0818   485.7    4.279      40.560
2015    5        4     6   3    4.0809   485.5    4.280      40.538
2015    5        4     6   9    4.0799   485.4    4.282      40.516
2015    5        4     6  14    4.0790   485.2    4.283      40.494
2015    5        4     6  20    4.0781   485.1    4.285      40.471
2015    5        4     6  26    4.0771   484.9    4.286      40.449
2015    5        4     6  31    4.0762   484.8    4.288      40.426
2015    5        4     6  37    4.0752   484.6    4.289      40.403
2015    5        4     6  43    4.0743   484.5    4.291      40.380
2015    5        4     6  49    4.0733   484.3    4.292      40.356
2015    5        4     6  54    4.0724   484.2    4.293      40.332
2015    5        4     7   0    4.0715   484.0    4.295      40.308
2015    5        4     7   6    4.0706   483.8    4.296      40.284
2015    5        4     7  12    4.0696   483.7    4.297      40.260
2015    5        4     7  17    4.0687   483.5    4.299      40.235
2015    5        4     7  23    4.0678   483.4    4.300      40.210
2015    5        4     7  29    4.0669   483.2    4.301      40.185
2015    5        4     7  34    4.0660   483.1    4.302      40.160
2015    5        4     7  40    4.0652   482.9    4.303      40.135
2015    5        4     7  46    4.0643   482.8    4.304      40.109
2015    5        4     7  52    4.0634   482.6    4.305      40.083
2015    5        4     7  57    4.0626   482.4    4.306      40.057
2015    5        4     8   3    4.0617   482.3    4.308      40.031
2015    5        4     8   9    4.0609   482.1    4.309      40.005
2015    5        4     8  14    4.0600   482.0    4.310      39.979
2015    5        4     8  20    4.0591   481.8    4.311      39.952
2015    5        4     8  26    4.0583   481.7    4.312      39.926
2015    5        4     8  32    4.0575   481.5    4.313      39.899
2015    5        4     8  37    4.0566   481.3    4.314      39.871
2015    5        4     8  43    4.0558   481.2    4.315      39.844
2015    5        4     8  49    4.0549   481.0    4.316      39.816
2015    5        4     8  55    4.0541   480.8    4.317      39.788
2015    5        4     9   0    4.0533   480.7    4.318      39.761
2015    5        4     9   6    4.0525   480.5    4.319      39.732
2015    5        4     9  12    4.0517   480.4    4.320      39.704
2015    5        4     9  17    4.0509   480.2    4.321      39.675
2015    5        4     9  23    4.0502   480.0    4.322      39.647
2015    5        4     9  29    4.0494   479.9    4.323      39.618
2015    5        4     9  35    4.0486   479.7    4.324      39.589
2015    5        4     9  40    4.0479   479.5    4.325      39.560
2015    5        4     9  46    4.0472   479.4    4.326      39.531
2015    5        4     9  52    4.0464   479.2    4.328      39.502
2015    5        4     9  57    4.0457   479.0    4.329      39.473
2015    5        4    10   3    4.0450   478.8    4.330      39.444
2015    5        4    10   9    4.0444   478.7    4.332      39.415
2015    5        4    10  15    4.0437   478.5    4.333      39.386
2015    5        4    10  20    4.0431   478.3    4.335      39.358
2015    5        4    10  26    4.0424   478.2    4.337      39.330
2015    5        4    10  32    4.0418   478.0    4.338      39.302
2015    5        4    10  38    4.0412   477.8    4.340      39.274
2015    5        4    10  43    4.0407   477.6    4.342      39.247
2015    5        4    10  49    4.0401   477.5    4.344      39.219
2015    5        4    10  55    4.0396   477.3    4.346      39.193
2015    5        4    11   0    4.0391   477.1    4.348      39.166
2015    5        4    11   6    4.0386   477.0    4.351      39.140
2015    5        4    11  12    4.0381   476.8    4.353      39.115
2015    5        4    11  18    4.0377   476.6    4.355      39.090
2015    5        4    11  23    4.0372   476.4    4.358      39.065
2015    5        4    11  29    4.0368   476.3    4.360      39.040
2015    5        4    11  35    4.0364   476.1    4.363      39.016
2015    5        4    11  40    4.0361   475.9    4.366      38.992
2015    5        4    11  46    4.0357   475.8    4.369      38.969
2015    5        4    11  52    4.0354   475.6    4.372      38.945
2015    5        4    11  58    4.0350   475.4    4.375      38.922
2015    5        4    12   3    4.0347   475.3    4.378      38.900
2015    5        4    12   9    4.0344   475.1    4.381      38.877
2015    5        4    12  15    4.0340   474.9    4.384      38.855
2015    5        4    12  20    4.0338   474.7    4.387      38.833
2015    5        4    12  26    4.0335   474.6    4.390      38.811
2015    5        4    12  32    4.0332   474.4    4.393      38.789
2015    5        4    12  38    4.0329   474.2    4.397      38.767
2015    5        4    12  43    4.0326   474.1    4.400      38.746
2015    5        4    12  49    4.0323   473.9    4.403      38.724
2015    5        4    12  55    4.0321   473.7    4.407      38.703
2015    5        4    13   1    4.0318   473.5    4.410      38.682
2015    5        4    13   6    4.0316   473.4    4.413      38.661
2015    5        4    13  12    4.0314   473.2    4.417      38.640
2015    5        4    13  18    4.0312   473.0    4.420      38.620
2015    5        4    13  23    4.0310   472.8    4.424      38.599
2015    5        4    13  29    4.0308   472.6    4.427      38.579
2015    5        4    13  35    4.0306   472.5    4.431      38.559
2015    5        4    13  41    4.0305   472.3    4.434      38.540
2015    5        4    13  46    4.0303   472.1    4.438      38.520
2015    5        4    13  52    4.0302   471.9    4.442      38.501
2015    5        4    13  58    4.0301   471.8    4.445      38.482
2015    5        4    14   3    4.0300   471.6    4.449      38.464
2015    5        4    14   9    4.0299   471.4    4.453      38.445
2015    5        4    14  15    4.0299   471.2    4.456      38.427
2015    5        4    14  21    4.0298   471.1    4.460      38.409
2015    5        4    14  26    4.0298   470.9    4.464      38.391
2015    5        4    14  32    4.0298   470.7    4.468      38.373
2015    5        4    14  38    4.0299   470.5    4.472      38.356
2015    5        4    14  44    4.0299   470.4    4.476      38.339
2015    5        4    14  49    4.0300   470.2    4.480      38.322
2015    5        4    14  55    4.0301   470.0    4.484      38.306
2015    5        4    15   1    4.0301   469.9    4.488      38.290
2015    5        4    15   6    4.0302   469.7    4.492      38.274
2015    5        4    15  12    4.0303   469.5    4.496      38.258
2015    5        4    15  18    4.0304   469.4    4.500      38.242
2015    5        4    15  24    4.0305   469.2    4.504      38.227
2015    5        4    15  29    4.0307   469.0    4.508      38.211
2015    5        4    15  35    4.0308   468.9    4.512      38.195
2015    5        4    15  41    4.0309   468.7    4.516      38.180
2015    5        4    15  46    4.0310   468.5    4.520      38.164
2015    5        4    15  52    4.0311   468.4    4.524      38.148
2015    5        4    15  58    4.0312   468.2    4.528      38.132
2015    5        4    16   4    4.0313   468.0    4.532      38.116
2015    5        4    16   9    4.0314   467.9    4.536      38.100
2015    5        4    16  15    4.0316   467.7    4.540      38.083
2015    5        4    16  21    4.0317   467.5    4.544      38.066
2015    5        4    16  27    4.0318   467.4    4.548      38.048
2015    5        4    16  32    4.0319   467.2    4.551      38.031
2015    5        4    16  38    4.0320   467.1    4.555      38.013
2015    5        4    16  44    4.0321   466.9    4.558      37.995
2015    5        4    16  49    4.0323   466.7    4.562      37.976
2015    5        4    16  55    4.0324   466.6    4.566      37.957
2015    5        4    17   1    4.0325   466.4    4.569      37.938
2015    5        4    17   7    4.0327   466.2    4.573      37.919
2015    5        4    17  12    4.0328   466.1    4.576      37.899
2015    5        4    17  18    4.0329   465.9    4.580      37.879
2015    5        4    17  24    4.0331   465.7    4.583      37.859
2015    5        4    17  29    4.0332   465.6    4.586      37.839
2015    5        4    17  35    4.0334   465.4    4.590      37.819
2015    5        4    17  41    4.0335   465.2    4.593      37.798
2015    5        4    17  47    4.0337   465.1    4.596      37.778
2015    5        4    17  52    4.0339   464.9    4.600      37.757
2015    5        4    17  58    4.0341   464.7    4.603      37.736
2015    5        4    18   4    4.0343   464.6    4.606      37.715
2015    5        4    18  10    4.0345   464.4    4.610      37.694
2015    5        4    18  15    4.0347   464.3    4.613      37.673
2015    5        4    18  21    4.0349   464.1    4.616      37.652
2015    5        4    18  27    4.0352   463.9    4.620      37.631
2015    5        4    18  32    4.0354   463.8    4.623      37.610
2015    5        4    18  38    4.0357   463.6    4.627      37.589
2015    5        4    18  44    4.0360   463.4    4.630      37.568
2015    5        4    18  50    4.0362   463.3    4.633      37.547
2015    5        4    18  55    4.0366   463.1    4.637      37.526
2015    5        4    19   1    4.0369   462.9    4.640      37.505
2015    5        4    19   7    4.0372   462.8    4.644      37.484
2015    5        4    19  12    4.0376   462.6    4.647      37.463
2015    5        4    19  18    4.0379   462.5    4.651      37.443
2015    5        4    19  24    4.0383   462.3    4.655      37.422
2015    5        4    19  30    4.0387   462.1    4.658      37.402
2015    5        4    19  35    4.0392   462.0    4.662      37.381
2015    5        4    19  41    4.0396   461.8    4.666      37.361
2015    5        4    19  47    4.0400   461.6    4.669      37.341
2015    5        4    19  53    4.0405   461.5    4.673      37.322
2015    5        4    19  58    4.0410   461.3    4.677      37.302
2015    5        4    20   4    4.0415   461.2    4.681      37.283
2015    5        4    20  10    4.0421   461.0    4.685      37.264
2015    5        4    20  15    4.0426   460.8    4.689      37.245
2015    5        4    20  21    4.0432   460.7    4.693      37.226
2015    5        4    20  27    4.0438   460.5    4.697      37.207
2015    5        4    20  33    4.0444   460.4    4.701      37.189
2015    5        4    20  38    4.0450   460.2    4.706      37.171
2015    5        4    20  44    4.0456   460.0    4.710      37.154
2015    5        4    20  50    4.0462   459.9    4.714      37.136
2015    5        4    20  55    4.0469   459.7    4.719      37.119
2015    5        4    21   1    4.0476   459.6    4.723      37.102
2015    5        4    21   7    4.0482   459.4    4.728      37.085
2015    5        4    21  13    4.0489   459.2    4.732      37.069
2015    5        4    21  18    4.0496   459.1    4.737      37.053
2015    5        4    21  24    4.0504   458.9    4.741      37.037
2015    5        4    21  30    4.0511   458.8    4.746      37.022
2015    5        4    21  36    4.0518   458.6    4.751      37.007
2015    5        4    21  41    4.0526   458.5    4.756      36.992
2015    5        4    21  47    4.0534   458.3    4.761      36.978
2015    5        4    21  53    4.0542   458.2    4.765      36.964
2015    5        4    21  58    4.0550   458.0    4.770      36.950
2015    5        4    22   4    4.0558   457.9    4.776      36.936
2015    5        4    22  10    4.0567   457.7    4.781      36.923
2015    5        4    22  16    4.0575   457.5    4.786      36.910
2015    5        4    22  21    4.0584   457.4    4.791      36.898
2015    5        4    22  27    4.0593   457.2    4.796      36.886
2015    5        4    22  33    4.0602   457.1    4.801      36.873
2015    5        4    22  38    4.0611   457.0    4.807      36.862
2015    5        4    22  44    4.0620   456.8    4.812      36.850
2015    5        4    22  50    4.0629   456.7    4.817      36.839
2015    5        4    22  56    4.0638   456.5    4.822      36.828
2015    5        4    23   1    4.0647   456.4    4.828      36.817
2015    5        4    23   7    4.0656   456.2    4.833      36.806
2015    5        4    23  13    4.0666   456.1    4.838      36.795
2015    5        4    23  18    4.0675   455.9    4.844      36.784
2015    5        4    23  24    4.0684   455.8    4.849      36.773
2015    5        4    23  30    4.0693   455.7    4.854      36.763
2015    5        4    23  36    4.0703   455.5    4.860      36.752
2015    5        4    23  41    4.0712   455.4    4.865      36.741
2015    5        4    23  47    4.0721   455.2    4.870      36.730
2015    5        4    23  53    4.0731   455.1    4.875      36.719
2015    5        4    23  59    4.0740   454.9    4.881      36.708
2015    5        5     0   4    4.0750   454.8    4.886      36.697
2015    5        5     0  10    4.0759   454.7    4.891      36.686
2015    5        5     0  16    4.0768   454.5    4.896      36.675
2015    5        5     0  21    4.0778   454.4    4.901      36.664
2015    5        5     0  27    4.0787   454.3    4.906      36.654
2015    5        5     0  33    4.0797   454.1    4.911      36.642
2015    5        5     0  39    4.0806   454.0    4.916      36.631
2015    5        5     0  44    4.0816   453.8    4.921      36.620
2015    5        5     0  50    4.0826   453.7    4.926      36.609
2015    5        5     0  56    4.0835   453.6    4.931      36.598
2015    5        5     1   1    4.0845   453.4    4.936      36.587
2015    5        5     1   7    4.0854   453.3    4.940      36.575
2015    5        5     1  13    4.0864   453.2    4.945      36.564
2015    5        5     1  19    4.0874   453.0    4.950      36.553
2015    5        5     1  24    4.0884   452.9    4.955      36.541
2015    5        5     1  30    4.0893   452.8    4.959      36.530
2015    5        5     1  36    4.0903   452.6    4.964      36.518
2015    5        5     1  42    4.0913   452.5    4.969      36.507
2015    5        5     1  47    4.0923   452.4    4.973      36.495
2015    5        5     1  53    4.0933   452.2    4.978      36.483
2015    5        5     1  59    4.0943   452.1    4.983      36.471
2015    5        5     2   4    4.0953   452.0    4.987      36.460
2015    5        5     2  10    4.0963   451.8    4.992      36.448
2015    5        5     2  16    4.0973   451.7    4.996      36.436
2015    5        5     2  22    4.0983   451.6    5.001      36.423
2015    5        5     2  27    4.0993   451.4    5.005      36.411
2015    5        5     2  33    4.1003   451.3    5.010      36.399
2015    5        5     2  39    4.1014   451.2    5.014      36.386
2015    5        5     2  44    4.1024   451.1    5.018      36.374
2015    5        5     2  50    4.1034   450.9    5.023      36.361
2015    5        5     2  56    4.1045   450.8    5.027      36.349
2015    5        5     3   2    4.1055   450.7    5.032      36.336
2015    5        5     3   7    4.1066   450.6    5.036      36.323
2015    5        5     3  13    4.1077   450.4    5.040      36.310
2015    5        5     3  19    4.1087   450.3    5.045      36.297
2015    5        5     3  25    4.1098   450.2    5.049      36.285
2015    5        5     3  30    4.1109   450.0    5.053      36.272
2015    5        5     3  36    4.1120   449.9    5.058      36.259
2015    5        5     3  42    4.1131   449.8    5.062      36.246
2015    5        5     3  47    4.1142   449.7    5.066      36.233
