year    month   day   hour  minute  B_enl V_enl   n_enl       T_enl
[year] [month] [day] [hour][minute] [nT]  [km/s]  [cm-3]      [kK]
2015    5        2     0   3    5.1908   481.1    5.804      47.379
2015    5        2     0   8    5.1887   481.2    5.800      47.385
2015    5        2     0  14    5.1866   481.3    5.796      47.392
2015    5        2     0  20    5.1845   481.4    5.792      47.398
2015    5        2     0  26    5.1824   481.5    5.788      47.404
2015    5        2     0  32    5.1802   481.6    5.784      47.410
2015    5        2     0  38    5.1781   481.7    5.780      47.417
2015    5        2     0  44    5.1759   481.8    5.776      47.423
2015    5        2     0  50    5.1737   481.9    5.771      47.429
2015    5        2     0  55    5.1715   482.0    5.767      47.435
2015    5        2     1   1    5.1693   482.1    5.763      47.440
2015    5        2     1   7    5.1671   482.2    5.759      47.446
2015    5        2     1  13    5.1649   482.3    5.754      47.451
2015    5        2     1  19    5.1627   482.4    5.750      47.456
2015    5        2     1  25    5.1604   482.5    5.746      47.461
2015    5        2     1  31    5.1581   482.6    5.741      47.466
2015    5        2     1  37    5.1559   482.7    5.737      47.470
2015    5        2     1  42    5.1536   482.8    5.732      47.474
2015    5        2     1  48    5.1513   482.8    5.728      47.478
2015    5        2     1  54    5.1490   482.9    5.723      47.481
2015    5        2     2   0    5.1467   483.0    5.719      47.485
2015    5        2     2   6    5.1444   483.1    5.714      47.488
2015    5        2     2  12    5.1421   483.2    5.710      47.491
2015    5        2     2  18    5.1397   483.3    5.705      47.493
2015    5        2     2  24    5.1374   483.4    5.700      47.496
2015    5        2     2  29    5.1350   483.5    5.696      47.498
2015    5        2     2  35    5.1326   483.6    5.691      47.500
2015    5        2     2  41    5.1303   483.7    5.686      47.501
2015    5        2     2  47    5.1279   483.8    5.682      47.503
2015    5        2     2  53    5.1255   483.9    5.677      47.504
2015    5        2     2  59    5.1231   484.0    5.672      47.505
2015    5        2     3   5    5.1207   484.0    5.668      47.506
2015    5        2     3  11    5.1183   484.1    5.663      47.506
2015    5        2     3  16    5.1159   484.2    5.658      47.507
2015    5        2     3  22    5.1135   484.3    5.653      47.507
2015    5        2     3  28    5.1110   484.4    5.649      47.507
2015    5        2     3  34    5.1086   484.5    5.644      47.508
2015    5        2     3  40    5.1061   484.6    5.639      47.507
2015    5        2     3  46    5.1037   484.7    5.635      47.507
2015    5        2     3  52    5.1012   484.8    5.630      47.507
2015    5        2     3  57    5.0988   484.9    5.625      47.507
2015    5        2     4   3    5.0963   484.9    5.621      47.506
2015    5        2     4   9    5.0938   485.0    5.616      47.506
2015    5        2     4  15    5.0914   485.1    5.612      47.505
2015    5        2     4  21    5.0889   485.2    5.607      47.505
2015    5        2     4  27    5.0864   485.3    5.603      47.504
2015    5        2     4  33    5.0840   485.4    5.598      47.503
2015    5        2     4  39    5.0815   485.5    5.594      47.503
2015    5        2     4  44    5.0790   485.5    5.589      47.502
2015    5        2     4  50    5.0765   485.6    5.585      47.502
2015    5        2     4  56    5.0740   485.7    5.580      47.501
2015    5        2     5   2    5.0716   485.8    5.576      47.501
2015    5        2     5   8    5.0691   485.9    5.572      47.500
2015    5        2     5  14    5.0666   486.0    5.568      47.499
2015    5        2     5  20    5.0641   486.1    5.563      47.499
2015    5        2     5  26    5.0616   486.1    5.559      47.499
2015    5        2     5  31    5.0591   486.2    5.555      47.498
2015    5        2     5  37    5.0567   486.3    5.551      47.498
2015    5        2     5  43    5.0542   486.4    5.547      47.498
2015    5        2     5  49    5.0517   486.5    5.543      47.498
2015    5        2     5  55    5.0492   486.6    5.539      47.497
2015    5        2     6   1    5.0467   486.6    5.535      47.497
2015    5        2     6   7    5.0442   486.7    5.531      47.497
2015    5        2     6  13    5.0417   486.8    5.527      47.497
2015    5        2     6  18    5.0392   486.9    5.523      47.497
2015    5        2     6  24    5.0367   487.0    5.518      47.497
2015    5        2     6  30    5.0342   487.0    5.514      47.497
2015    5        2     6  36    5.0317   487.1    5.510      47.498
2015    5        2     6  42    5.0292   487.2    5.506      47.498
2015    5        2     6  48    5.0267   487.3    5.502      47.498
2015    5        2     6  54    5.0241   487.4    5.498      47.498
2015    5        2     7   0    5.0216   487.4    5.494      47.497
2015    5        2     7   5    5.0190   487.5    5.490      47.497
2015    5        2     7  11    5.0165   487.6    5.486      47.496
2015    5        2     7  17    5.0139   487.7    5.481      47.495
2015    5        2     7  23    5.0113   487.8    5.477      47.494
2015    5        2     7  29    5.0087   487.8    5.473      47.492
2015    5        2     7  35    5.0061   487.9    5.469      47.491
2015    5        2     7  41    5.0035   488.0    5.464      47.489
2015    5        2     7  46    5.0009   488.1    5.460      47.487
2015    5        2     7  52    4.9983   488.1    5.455      47.485
2015    5        2     7  58    4.9957   488.2    5.451      47.482
2015    5        2     8   4    4.9930   488.3    5.447      47.479
2015    5        2     8  10    4.9904   488.4    5.442      47.476
2015    5        2     8  16    4.9877   488.4    5.438      47.473
2015    5        2     8  22    4.9851   488.5    5.433      47.470
2015    5        2     8  28    4.9824   488.6    5.429      47.466
2015    5        2     8  33    4.9797   488.6    5.424      47.462
2015    5        2     8  39    4.9770   488.7    5.420      47.458
2015    5        2     8  45    4.9743   488.8    5.415      47.453
2015    5        2     8  51    4.9716   488.9    5.411      47.449
2015    5        2     8  57    4.9689   488.9    5.406      47.444
2015    5        2     9   3    4.9662   489.0    5.402      47.439
2015    5        2     9   9    4.9634   489.1    5.397      47.433
2015    5        2     9  15    4.9607   489.1    5.393      47.428
2015    5        2     9  20    4.9580   489.2    5.388      47.422
2015    5        2     9  26    4.9552   489.3    5.384      47.416
2015    5        2     9  32    4.9524   489.3    5.379      47.410
2015    5        2     9  38    4.9497   489.4    5.375      47.404
2015    5        2     9  44    4.9469   489.5    5.370      47.397
2015    5        2     9  50    4.9441   489.5    5.366      47.391
2015    5        2     9  56    4.9413   489.6    5.361      47.384
2015    5        2    10   2    4.9385   489.7    5.357      47.377
2015    5        2    10   7    4.9357   489.7    5.352      47.371
2015    5        2    10  13    4.9329   489.8    5.348      47.364
2015    5        2    10  19    4.9300   489.9    5.344      47.357
2015    5        2    10  25    4.9272   489.9    5.339      47.350
2015    5        2    10  31    4.9244   490.0    5.335      47.343
2015    5        2    10  37    4.9215   490.0    5.331      47.336
2015    5        2    10  43    4.9187   490.1    5.326      47.329
2015    5        2    10  49    4.9158   490.2    5.322      47.322
2015    5        2    10  54    4.9130   490.2    5.318      47.316
2015    5        2    11   0    4.9101   490.3    5.314      47.309
2015    5        2    11   6    4.9073   490.4    5.309      47.302
2015    5        2    11  12    4.9044   490.4    5.305      47.295
2015    5        2    11  18    4.9016   490.5    5.301      47.289
2015    5        2    11  24    4.8987   490.5    5.297      47.282
2015    5        2    11  30    4.8959   490.6    5.293      47.276
2015    5        2    11  35    4.8930   490.6    5.289      47.270
2015    5        2    11  41    4.8902   490.7    5.285      47.263
2015    5        2    11  47    4.8874   490.8    5.281      47.257
2015    5        2    11  53    4.8845   490.8    5.277      47.251
2015    5        2    11  59    4.8817   490.9    5.273      47.245
2015    5        2    12   5    4.8789   490.9    5.269      47.239
2015    5        2    12  11    4.8761   491.0    5.265      47.234
2015    5        2    12  17    4.8733   491.0    5.261      47.228
2015    5        2    12  22    4.8705   491.1    5.257      47.222
2015    5        2    12  28    4.8677   491.2    5.253      47.216
2015    5        2    12  34    4.8649   491.2    5.249      47.211
2015    5        2    12  40    4.8621   491.3    5.245      47.205
2015    5        2    12  46    4.8593   491.3    5.241      47.199
2015    5        2    12  52    4.8565   491.4    5.237      47.193
2015    5        2    12  58    4.8538   491.4    5.233      47.187
2015    5        2    13   4    4.8510   491.5    5.229      47.181
2015    5        2    13   9    4.8482   491.5    5.225      47.174
2015    5        2    13  15    4.8455   491.6    5.221      47.168
2015    5        2    13  21    4.8427   491.6    5.217      47.161
2015    5        2    13  27    4.8400   491.7    5.213      47.154
2015    5        2    13  33    4.8373   491.7    5.209      47.147
2015    5        2    13  39    4.8345   491.8    5.205      47.139
2015    5        2    13  45    4.8318   491.8    5.201      47.131
2015    5        2    13  51    4.8291   491.9    5.197      47.123
2015    5        2    13  56    4.8264   491.9    5.193      47.115
2015    5        2    14   2    4.8237   492.0    5.188      47.107
2015    5        2    14   8    4.8210   492.0    5.184      47.098
2015    5        2    14  14    4.8183   492.1    5.180      47.089
2015    5        2    14  20    4.8156   492.1    5.176      47.080
2015    5        2    14  26    4.8129   492.1    5.172      47.071
2015    5        2    14  32    4.8102   492.2    5.168      47.061
2015    5        2    14  38    4.8075   492.2    5.164      47.051
2015    5        2    14  43    4.8048   492.3    5.160      47.041
2015    5        2    14  49    4.8021   492.3    5.156      47.031
2015    5        2    14  55    4.7994   492.4    5.152      47.020
2015    5        2    15   1    4.7966   492.4    5.148      47.009
2015    5        2    15   7    4.7939   492.4    5.143      46.998
2015    5        2    15  13    4.7912   492.5    5.139      46.986
2015    5        2    15  19    4.7885   492.5    5.135      46.975
2015    5        2    15  24    4.7857   492.6    5.131      46.963
2015    5        2    15  30    4.7830   492.6    5.127      46.952
2015    5        2    15  36    4.7802   492.6    5.124      46.940
2015    5        2    15  42    4.7775   492.7    5.120      46.928
2015    5        2    15  48    4.7748   492.7    5.116      46.916
2015    5        2    15  54    4.7720   492.8    5.112      46.903
2015    5        2    16   0    4.7692   492.8    5.108      46.891
2015    5        2    16   6    4.7664   492.8    5.104      46.879
2015    5        2    16  11    4.7637   492.9    5.100      46.866
2015    5        2    16  17    4.7609   492.9    5.097      46.854
2015    5        2    16  23    4.7581   492.9    5.093      46.841
2015    5        2    16  29    4.7553   493.0    5.089      46.829
2015    5        2    16  35    4.7524   493.0    5.086      46.816
2015    5        2    16  41    4.7496   493.0    5.082      46.804
2015    5        2    16  47    4.7468   493.1    5.078      46.791
2015    5        2    16  53    4.7440   493.1    5.075      46.778
2015    5        2    16  58    4.7411   493.1    5.071      46.766
2015    5        2    17   4    4.7383   493.2    5.067      46.753
2015    5        2    17  10    4.7355   493.2    5.064      46.740
2015    5        2    17  16    4.7326   493.2    5.060      46.728
2015    5        2    17  22    4.7297   493.3    5.057      46.715
2015    5        2    17  28    4.7269   493.3    5.053      46.703
2015    5        2    17  34    4.7240   493.3    5.050      46.690
2015    5        2    17  40    4.7212   493.3    5.046      46.678
2015    5        2    17  45    4.7183   493.4    5.043      46.665
2015    5        2    17  51    4.7154   493.4    5.039      46.653
2015    5        2    17  57    4.7126   493.4    5.036      46.640
2015    5        2    18   3    4.7097   493.4    5.033      46.628
2015    5        2    18   9    4.7069   493.5    5.029      46.615
2015    5        2    18  15    4.7040   493.5    5.026      46.603
2015    5        2    18  21    4.7012   493.5    5.022      46.590
2015    5        2    18  27    4.6983   493.5    5.019      46.578
2015    5        2    18  32    4.6955   493.5    5.015      46.566
2015    5        2    18  38    4.6927   493.6    5.012      46.553
2015    5        2    18  44    4.6898   493.6    5.008      46.541
2015    5        2    18  50    4.6871   493.6    5.005      46.528
2015    5        2    18  56    4.6842   493.6    5.002      46.516
2015    5        2    19   2    4.6815   493.6    4.998      46.503
2015    5        2    19   8    4.6787   493.6    4.995      46.490
2015    5        2    19  13    4.6759   493.7    4.991      46.478
2015    5        2    19  19    4.6732   493.7    4.988      46.465
2015    5        2    19  25    4.6705   493.7    4.985      46.452
2015    5        2    19  31    4.6677   493.7    4.981      46.439
2015    5        2    19  37    4.6651   493.7    4.978      46.425
2015    5        2    19  43    4.6624   493.7    4.974      46.412
2015    5        2    19  49    4.6597   493.7    4.971      46.398
2015    5        2    19  55    4.6571   493.8    4.967      46.384
2015    5        2    20   0    4.6544   493.8    4.964      46.370
2015    5        2    20   6    4.6518   493.8    4.961      46.356
2015    5        2    20  12    4.6492   493.8    4.957      46.342
2015    5        2    20  18    4.6467   493.8    4.954      46.328
2015    5        2    20  24    4.6441   493.8    4.950      46.313
2015    5        2    20  30    4.6415   493.8    4.947      46.298
2015    5        2    20  36    4.6390   493.8    4.943      46.283
2015    5        2    20  42    4.6365   493.9    4.940      46.267
2015    5        2    20  47    4.6340   493.9    4.937      46.252
2015    5        2    20  53    4.6315   493.9    4.933      46.236
2015    5        2    20  59    4.6291   493.9    4.930      46.220
2015    5        2    21   5    4.6266   493.9    4.927      46.204
2015    5        2    21  11    4.6242   493.9    4.923      46.188
2015    5        2    21  17    4.6218   493.9    4.920      46.171
2015    5        2    21  23    4.6193   493.9    4.917      46.155
2015    5        2    21  29    4.6169   493.9    4.913      46.138
2015    5        2    21  34    4.6145   493.9    4.910      46.122
2015    5        2    21  40    4.6121   494.0    4.907      46.105
2015    5        2    21  46    4.6097   494.0    4.904      46.089
2015    5        2    21  52    4.6073   494.0    4.901      46.072
2015    5        2    21  58    4.6049   494.0    4.898      46.055
2015    5        2    22   4    4.6025   494.0    4.895      46.039
2015    5        2    22  10    4.6002   494.0    4.891      46.022
2015    5        2    22  16    4.5978   494.0    4.888      46.006
2015    5        2    22  21    4.5954   494.0    4.886      45.989
2015    5        2    22  27    4.5930   494.0    4.883      45.973
2015    5        2    22  33    4.5906   494.0    4.880      45.957
2015    5        2    22  39    4.5881   494.0    4.877      45.941
2015    5        2    22  45    4.5857   494.0    4.874      45.925
2015    5        2    22  51    4.5833   494.0    4.871      45.910
2015    5        2    22  57    4.5809   494.0    4.869      45.895
2015    5        2    23   2    4.5785   494.0    4.866      45.879
2015    5        2    23   8    4.5761   494.1    4.863      45.864
2015    5        2    23  14    4.5736   494.1    4.861      45.850
2015    5        2    23  20    4.5712   494.1    4.858      45.835
2015    5        2    23  26    4.5688   494.1    4.856      45.821
2015    5        2    23  32    4.5663   494.1    4.853      45.807
2015    5        2    23  38    4.5639   494.1    4.851      45.793
2015    5        2    23  44    4.5614   494.1    4.848      45.779
2015    5        2    23  49    4.5589   494.1    4.846      45.766
2015    5        2    23  55    4.5565   494.1    4.844      45.752
2015    5        3     0   1    4.5540   494.1    4.841      45.739
2015    5        3     0   7    4.5515   494.1    4.839      45.727
2015    5        3     0  13    4.5490   494.1    4.837      45.714
2015    5        3     0  19    4.5465   494.1    4.835      45.701
2015    5        3     0  25    4.5441   494.1    4.832      45.688
2015    5        3     0  31    4.5416   494.1    4.830      45.676
2015    5        3     0  36    4.5391   494.1    4.828      45.663
2015    5        3     0  42    4.5366   494.1    4.826      45.651
2015    5        3     0  48    4.5341   494.1    4.824      45.638
2015    5        3     0  54    4.5316   494.1    4.821      45.626
2015    5        3     1   0    4.5291   494.1    4.819      45.613
2015    5        3     1   6    4.5266   494.1    4.817      45.601
2015    5        3     1  12    4.5241   494.1    4.815      45.588
2015    5        3     1  18    4.5217   494.0    4.813      45.575
2015    5        3     1  23    4.5192   494.0    4.811      45.561
2015    5        3     1  29    4.5167   494.0    4.808      45.548
2015    5        3     1  35    4.5142   494.0    4.806      45.533
2015    5        3     1  41    4.5118   494.0    4.804      45.519
2015    5        3     1  47    4.5093   494.0    4.802      45.504
2015    5        3     1  53    4.5069   494.0    4.800      45.489
2015    5        3     1  59    4.5044   494.0    4.797      45.473
2015    5        3     2   5    4.5020   494.0    4.795      45.456
2015    5        3     2  10    4.4996   493.9    4.793      45.440
2015    5        3     2  16    4.4972   493.9    4.791      45.422
2015    5        3     2  22    4.4948   493.9    4.788      45.404
2015    5        3     2  28    4.4924   493.9    4.786      45.386
2015    5        3     2  34    4.4901   493.9    4.784      45.368
2015    5        3     2  40    4.4878   493.9    4.781      45.349
2015    5        3     2  46    4.4854   493.8    4.779      45.330
2015    5        3     2  51    4.4831   493.8    4.777      45.310
2015    5        3     2  57    4.4808   493.8    4.774      45.290
2015    5        3     3   3    4.4785   493.8    4.772      45.270
2015    5        3     3   9    4.4763   493.8    4.770      45.249
2015    5        3     3  15    4.4740   493.7    4.767      45.229
2015    5        3     3  21    4.4718   493.7    4.765      45.208
2015    5        3     3  27    4.4696   493.7    4.763      45.186
2015    5        3     3  33    4.4674   493.7    4.760      45.165
2015    5        3     3  38    4.4652   493.6    4.758      45.143
2015    5        3     3  44    4.4630   493.6    4.756      45.121
2015    5        3     3  50    4.4609   493.6    4.753      45.099
2015    5        3     3  56    4.4587   493.6    4.751      45.077
2015    5        3     4   2    4.4566   493.5    4.749      45.055
2015    5        3     4   8    4.4545   493.5    4.746      45.032
2015    5        3     4  14    4.4524   493.5    4.744      45.010
2015    5        3     4  20    4.4503   493.5    4.742      44.988
2015    5        3     4  25    4.4483   493.4    4.740      44.966
2015    5        3     4  31    4.4462   493.4    4.738      44.944
