year    month   day   hour  minute  B_enl V_enl   n_enl       T_enl
[year] [month] [day] [hour][minute] [nT]  [km/s]  [cm-3]      [kK]
2015    5        3     0   1    4.7079   508.5    4.649      48.694
2015    5        3     0   7    4.7067   508.5    4.647      48.689
2015    5        3     0  12    4.7055   508.5    4.646      48.684
2015    5        3     0  18    4.7043   508.5    4.645      48.678
2015    5        3     0  24    4.7030   508.5    4.643      48.672
2015    5        3     0  30    4.7018   508.5    4.642      48.667
2015    5        3     0  35    4.7005   508.5    4.640      48.660
2015    5        3     0  41    4.6993   508.5    4.639      48.654
2015    5        3     0  47    4.6981   508.5    4.637      48.648
2015    5        3     0  52    4.6968   508.5    4.636      48.641
2015    5        3     0  58    4.6956   508.5    4.634      48.635
2015    5        3     1   4    4.6944   508.5    4.633      48.628
2015    5        3     1  10    4.6931   508.5    4.631      48.621
2015    5        3     1  15    4.6919   508.5    4.630      48.614
2015    5        3     1  21    4.6906   508.5    4.628      48.607
2015    5        3     1  27    4.6894   508.5    4.627      48.599
2015    5        3     1  32    4.6882   508.5    4.625      48.592
2015    5        3     1  38    4.6869   508.5    4.624      48.585
2015    5        3     1  44    4.6857   508.5    4.622      48.577
2015    5        3     1  49    4.6845   508.5    4.621      48.570
2015    5        3     1  55    4.6832   508.5    4.619      48.563
2015    5        3     2   1    4.6820   508.5    4.618      48.555
2015    5        3     2   7    4.6808   508.5    4.616      48.547
2015    5        3     2  12    4.6796   508.5    4.615      48.540
2015    5        3     2  18    4.6784   508.5    4.614      48.533
2015    5        3     2  24    4.6772   508.5    4.612      48.526
2015    5        3     2  29    4.6759   508.5    4.611      48.518
2015    5        3     2  35    4.6747   508.5    4.609      48.511
2015    5        3     2  41    4.6735   508.5    4.608      48.504
2015    5        3     2  47    4.6723   508.5    4.607      48.497
2015    5        3     2  52    4.6712   508.5    4.605      48.490
2015    5        3     2  58    4.6700   508.5    4.604      48.484
2015    5        3     3   4    4.6688   508.5    4.603      48.477
2015    5        3     3   9    4.6676   508.5    4.602      48.471
2015    5        3     3  15    4.6664   508.5    4.600      48.464
2015    5        3     3  21    4.6652   508.5    4.599      48.458
2015    5        3     3  27    4.6640   508.5    4.598      48.452
2015    5        3     3  32    4.6628   508.5    4.597      48.446
2015    5        3     3  38    4.6616   508.6    4.596      48.439
2015    5        3     3  44    4.6604   508.6    4.594      48.433
2015    5        3     3  49    4.6592   508.6    4.593      48.427
2015    5        3     3  55    4.6580   508.6    4.592      48.421
2015    5        3     4   1    4.6568   508.6    4.591      48.415
2015    5        3     4   7    4.6556   508.6    4.590      48.409
2015    5        3     4  12    4.6543   508.6    4.588      48.403
2015    5        3     4  18    4.6531   508.6    4.587      48.396
2015    5        3     4  24    4.6518   508.6    4.586      48.390
2015    5        3     4  29    4.6506   508.6    4.585      48.384
2015    5        3     4  35    4.6493   508.6    4.584      48.377
2015    5        3     4  41    4.6481   508.6    4.583      48.371
2015    5        3     4  47    4.6468   508.6    4.581      48.364
2015    5        3     4  52    4.6456   508.6    4.580      48.357
2015    5        3     4  58    4.6443   508.5    4.579      48.350
2015    5        3     5   4    4.6430   508.5    4.578      48.343
2015    5        3     5   9    4.6417   508.5    4.577      48.336
2015    5        3     5  15    4.6405   508.5    4.575      48.328
2015    5        3     5  21    4.6392   508.5    4.574      48.321
2015    5        3     5  27    4.6379   508.5    4.573      48.313
2015    5        3     5  32    4.6366   508.5    4.572      48.306
2015    5        3     5  38    4.6353   508.5    4.571      48.298
2015    5        3     5  44    4.6340   508.5    4.569      48.290
2015    5        3     5  49    4.6327   508.5    4.568      48.282
2015    5        3     5  55    4.6315   508.5    4.567      48.273
2015    5        3     6   1    4.6302   508.5    4.566      48.265
2015    5        3     6   7    4.6289   508.5    4.565      48.257
2015    5        3     6  12    4.6276   508.5    4.564      48.248
2015    5        3     6  18    4.6263   508.5    4.563      48.240
2015    5        3     6  24    4.6250   508.5    4.562      48.231
2015    5        3     6  29    4.6238   508.5    4.561      48.223
2015    5        3     6  35    4.6225   508.5    4.560      48.214
2015    5        3     6  41    4.6212   508.5    4.559      48.205
2015    5        3     6  47    4.6200   508.4    4.558      48.197
2015    5        3     6  52    4.6187   508.4    4.557      48.188
2015    5        3     6  58    4.6174   508.4    4.556      48.179
2015    5        3     7   4    4.6161   508.4    4.555      48.170
2015    5        3     7   9    4.6149   508.4    4.554      48.162
2015    5        3     7  15    4.6136   508.4    4.553      48.153
2015    5        3     7  21    4.6123   508.4    4.552      48.144
2015    5        3     7  27    4.6111   508.4    4.551      48.135
2015    5        3     7  32    4.6098   508.4    4.551      48.126
2015    5        3     7  38    4.6086   508.4    4.550      48.117
2015    5        3     7  44    4.6073   508.3    4.549      48.108
2015    5        3     7  49    4.6060   508.3    4.548      48.099
2015    5        3     7  55    4.6048   508.3    4.547      48.090
2015    5        3     8   1    4.6035   508.3    4.547      48.080
2015    5        3     8   7    4.6022   508.3    4.546      48.071
2015    5        3     8  12    4.6010   508.3    4.545      48.061
2015    5        3     8  18    4.5997   508.3    4.544      48.052
2015    5        3     8  24    4.5984   508.3    4.544      48.042
2015    5        3     8  29    4.5972   508.3    4.543      48.032
2015    5        3     8  35    4.5959   508.2    4.542      48.022
2015    5        3     8  41    4.5946   508.2    4.541      48.012
2015    5        3     8  46    4.5933   508.2    4.540      48.001
2015    5        3     8  52    4.5921   508.2    4.540      47.991
2015    5        3     8  58    4.5908   508.2    4.539      47.980
2015    5        3     9   4    4.5895   508.2    4.538      47.970
2015    5        3     9   9    4.5882   508.2    4.537      47.959
2015    5        3     9  15    4.5870   508.2    4.536      47.948
2015    5        3     9  21    4.5857   508.1    4.535      47.937
2015    5        3     9  26    4.5844   508.1    4.535      47.926
2015    5        3     9  32    4.5831   508.1    4.534      47.915
2015    5        3     9  38    4.5819   508.1    4.533      47.904
2015    5        3     9  44    4.5806   508.1    4.532      47.893
2015    5        3     9  49    4.5794   508.1    4.531      47.882
2015    5        3     9  55    4.5781   508.0    4.530      47.871
2015    5        3    10   1    4.5769   508.0    4.529      47.860
2015    5        3    10   6    4.5756   508.0    4.528      47.849
2015    5        3    10  12    4.5744   508.0    4.528      47.837
2015    5        3    10  18    4.5732   508.0    4.527      47.827
2015    5        3    10  24    4.5719   508.0    4.526      47.816
2015    5        3    10  29    4.5707   508.0    4.525      47.804
2015    5        3    10  35    4.5695   507.9    4.524      47.794
2015    5        3    10  41    4.5682   507.9    4.523      47.783
2015    5        3    10  46    4.5670   507.9    4.522      47.772
2015    5        3    10  52    4.5658   507.9    4.521      47.761
2015    5        3    10  58    4.5645   507.9    4.521      47.750
2015    5        3    11   4    4.5633   507.9    4.520      47.739
2015    5        3    11   9    4.5621   507.9    4.519      47.728
2015    5        3    11  15    4.5608   507.8    4.518      47.718
2015    5        3    11  21    4.5595   507.8    4.517      47.707
2015    5        3    11  26    4.5583   507.8    4.516      47.696
2015    5        3    11  32    4.5570   507.8    4.516      47.685
2015    5        3    11  38    4.5557   507.8    4.515      47.674
2015    5        3    11  44    4.5545   507.8    4.514      47.663
2015    5        3    11  49    4.5532   507.7    4.513      47.653
2015    5        3    11  55    4.5519   507.7    4.512      47.642
2015    5        3    12   1    4.5506   507.7    4.511      47.630
2015    5        3    12   6    4.5492   507.7    4.510      47.619
2015    5        3    12  12    4.5479   507.7    4.510      47.608
2015    5        3    12  18    4.5466   507.7    4.509      47.597
2015    5        3    12  24    4.5453   507.6    4.508      47.586
2015    5        3    12  29    4.5439   507.6    4.507      47.575
2015    5        3    12  35    4.5426   507.6    4.506      47.563
2015    5        3    12  41    4.5412   507.6    4.505      47.552
2015    5        3    12  46    4.5399   507.6    4.505      47.541
2015    5        3    12  52    4.5385   507.6    4.504      47.529
2015    5        3    12  58    4.5371   507.5    4.503      47.518
2015    5        3    13   4    4.5358   507.5    4.502      47.507
2015    5        3    13   9    4.5344   507.5    4.501      47.495
2015    5        3    13  15    4.5330   507.5    4.500      47.484
2015    5        3    13  21    4.5316   507.5    4.500      47.472
2015    5        3    13  26    4.5302   507.4    4.499      47.461
2015    5        3    13  32    4.5289   507.4    4.498      47.449
2015    5        3    13  38    4.5275   507.4    4.497      47.438
2015    5        3    13  44    4.5261   507.4    4.496      47.426
2015    5        3    13  49    4.5247   507.3    4.496      47.414
2015    5        3    13  55    4.5233   507.3    4.495      47.403
2015    5        3    14   1    4.5219   507.3    4.494      47.391
2015    5        3    14   6    4.5205   507.3    4.494      47.380
2015    5        3    14  12    4.5191   507.3    4.493      47.368
2015    5        3    14  18    4.5177   507.2    4.492      47.356
2015    5        3    14  24    4.5164   507.2    4.491      47.345
2015    5        3    14  29    4.5150   507.2    4.491      47.333
2015    5        3    14  35    4.5136   507.2    4.490      47.322
2015    5        3    14  41    4.5122   507.1    4.490      47.310
2015    5        3    14  46    4.5108   507.1    4.489      47.298
2015    5        3    14  52    4.5094   507.1    4.488      47.286
2015    5        3    14  58    4.5081   507.1    4.488      47.275
2015    5        3    15   3    4.5067   507.0    4.487      47.263
2015    5        3    15   9    4.5053   507.0    4.486      47.251
2015    5        3    15  15    4.5040   507.0    4.486      47.239
2015    5        3    15  21    4.5026   507.0    4.485      47.227
2015    5        3    15  26    4.5012   506.9    4.485      47.215
2015    5        3    15  32    4.4999   506.9    4.484      47.203
2015    5        3    15  38    4.4985   506.9    4.484      47.190
2015    5        3    15  43    4.4971   506.9    4.483      47.177
2015    5        3    15  49    4.4958   506.8    4.482      47.165
2015    5        3    15  55    4.4944   506.8    4.482      47.152
2015    5        3    16   1    4.4930   506.8    4.481      47.139
2015    5        3    16   6    4.4917   506.8    4.480      47.125
2015    5        3    16  12    4.4903   506.7    4.480      47.111
2015    5        3    16  18    4.4889   506.7    4.479      47.098
2015    5        3    16  23    4.4875   506.7    4.479      47.084
2015    5        3    16  29    4.4862   506.6    4.478      47.069
2015    5        3    16  35    4.4848   506.6    4.477      47.055
2015    5        3    16  41    4.4834   506.6    4.477      47.040
2015    5        3    16  46    4.4820   506.6    4.476      47.025
2015    5        3    16  52    4.4806   506.5    4.475      47.010
2015    5        3    16  58    4.4792   506.5    4.474      46.995
2015    5        3    17   3    4.4779   506.5    4.474      46.979
2015    5        3    17   9    4.4765   506.4    4.473      46.963
2015    5        3    17  15    4.4751   506.4    4.472      46.947
2015    5        3    17  21    4.4737   506.4    4.472      46.931
2015    5        3    17  26    4.4723   506.3    4.471      46.915
2015    5        3    17  32    4.4710   506.3    4.470      46.898
2015    5        3    17  38    4.4696   506.3    4.470      46.882
2015    5        3    17  43    4.4682   506.2    4.469      46.865
2015    5        3    17  49    4.4668   506.2    4.468      46.849
2015    5        3    17  55    4.4655   506.2    4.468      46.832
2015    5        3    18   1    4.4641   506.1    4.467      46.815
2015    5        3    18   6    4.4627   506.1    4.467      46.798
2015    5        3    18  12    4.4614   506.1    4.466      46.781
2015    5        3    18  18    4.4600   506.0    4.466      46.765
2015    5        3    18  23    4.4587   506.0    4.465      46.748
2015    5        3    18  29    4.4573   506.0    4.465      46.731
2015    5        3    18  35    4.4559   505.9    4.464      46.714
2015    5        3    18  41    4.4546   505.9    4.464      46.698
2015    5        3    18  46    4.4532   505.8    4.464      46.681
2015    5        3    18  52    4.4519   505.8    4.463      46.665
2015    5        3    18  58    4.4505   505.8    4.463      46.648
2015    5        3    19   3    4.4491   505.7    4.463      46.632
2015    5        3    19   9    4.4478   505.7    4.462      46.615
2015    5        3    19  15    4.4464   505.7    4.462      46.599
2015    5        3    19  21    4.4450   505.6    4.462      46.583
2015    5        3    19  26    4.4436   505.6    4.462      46.567
2015    5        3    19  32    4.4421   505.5    4.461      46.551
2015    5        3    19  38    4.4407   505.5    4.461      46.535
2015    5        3    19  43    4.4393   505.5    4.461      46.519
2015    5        3    19  49    4.4379   505.4    4.461      46.504
2015    5        3    19  55    4.4364   505.4    4.460      46.488
2015    5        3    20   1    4.4350   505.4    4.460      46.472
2015    5        3    20   6    4.4335   505.3    4.460      46.456
2015    5        3    20  12    4.4321   505.3    4.460      46.441
2015    5        3    20  18    4.4306   505.2    4.459      46.425
2015    5        3    20  23    4.4291   505.2    4.459      46.409
2015    5        3    20  29    4.4277   505.2    4.459      46.393
2015    5        3    20  35    4.4262   505.1    4.459      46.377
2015    5        3    20  41    4.4247   505.1    4.458      46.361
2015    5        3    20  46    4.4232   505.0    4.458      46.344
2015    5        3    20  52    4.4217   505.0    4.457      46.328
2015    5        3    20  58    4.4202   504.9    4.457      46.312
2015    5        3    21   3    4.4187   504.9    4.457      46.295
2015    5        3    21   9    4.4172   504.9    4.456      46.278
2015    5        3    21  15    4.4157   504.8    4.456      46.261
2015    5        3    21  20    4.4142   504.8    4.455      46.244
2015    5        3    21  26    4.4127   504.7    4.455      46.226
2015    5        3    21  32    4.4113   504.7    4.454      46.209
2015    5        3    21  38    4.4098   504.7    4.454      46.191
2015    5        3    21  43    4.4083   504.6    4.453      46.173
2015    5        3    21  49    4.4068   504.6    4.452      46.155
2015    5        3    21  55    4.4053   504.5    4.452      46.136
2015    5        3    22   0    4.4038   504.5    4.451      46.118
2015    5        3    22   6    4.4023   504.4    4.450      46.099
2015    5        3    22  12    4.4008   504.4    4.450      46.080
2015    5        3    22  18    4.3993   504.4    4.449      46.061
2015    5        3    22  23    4.3978   504.3    4.448      46.042
2015    5        3    22  29    4.3963   504.3    4.448      46.022
2015    5        3    22  35    4.3948   504.2    4.447      46.002
2015    5        3    22  40    4.3934   504.2    4.446      45.982
2015    5        3    22  46    4.3919   504.1    4.445      45.962
2015    5        3    22  52    4.3904   504.1    4.444      45.941
2015    5        3    22  58    4.3888   504.0    4.444      45.921
2015    5        3    23   3    4.3873   504.0    4.443      45.900
2015    5        3    23   9    4.3858   503.9    4.442      45.879
2015    5        3    23  15    4.3843   503.9    4.441      45.857
2015    5        3    23  20    4.3828   503.9    4.440      45.836
2015    5        3    23  26    4.3813   503.8    4.439      45.814
2015    5        3    23  32    4.3797   503.8    4.438      45.791
2015    5        3    23  38    4.3782   503.7    4.437      45.769
2015    5        3    23  43    4.3766   503.7    4.436      45.747
2015    5        3    23  49    4.3751   503.6    4.435      45.724
2015    5        3    23  55    4.3736   503.6    4.435      45.701
2015    5        4     0   0    4.3720   503.5    4.434      45.678
2015    5        4     0   6    4.3704   503.5    4.433      45.655
2015    5        4     0  12    4.3689   503.4    4.432      45.632
2015    5        4     0  18    4.3673   503.4    4.431      45.608
2015    5        4     0  23    4.3658   503.3    4.430      45.585
2015    5        4     0  29    4.3642   503.3    4.429      45.561
2015    5        4     0  35    4.3626   503.2    4.428      45.537
2015    5        4     0  40    4.3611   503.1    4.428      45.513
2015    5        4     0  46    4.3595   503.1    4.427      45.489
2015    5        4     0  52    4.3579   503.0    4.426      45.465
2015    5        4     0  58    4.3563   503.0    4.425      45.441
2015    5        4     1   3    4.3547   502.9    4.425      45.417
2015    5        4     1   9    4.3532   502.9    4.424      45.392
2015    5        4     1  15    4.3516   502.8    4.423      45.368
2015    5        4     1  20    4.3500   502.8    4.423      45.344
2015    5        4     1  26    4.3484   502.7    4.422      45.319
2015    5        4     1  32    4.3468   502.6    4.421      45.295
2015    5        4     1  38    4.3452   502.6    4.421      45.271
2015    5        4     1  43    4.3436   502.5    4.420      45.246
2015    5        4     1  49    4.3420   502.5    4.420      45.222
2015    5        4     1  55    4.3404   502.4    4.419      45.198
2015    5        4     2   0    4.3388   502.3    4.419      45.173
2015    5        4     2   6    4.3372   502.3    4.419      45.149
2015    5        4     2  12    4.3357   502.2    4.418      45.125
2015    5        4     2  18    4.3340   502.2    4.418      45.101
2015    5        4     2  23    4.3324   502.1    4.418      45.077
2015    5        4     2  29    4.3308   502.0    4.417      45.053
2015    5        4     2  35    4.3292   502.0    4.417      45.029
2015    5        4     2  40    4.3276   501.9    4.417      45.005
2015    5        4     2  46    4.3260   501.8    4.417      44.981
2015    5        4     2  52    4.3244   501.8    4.417      44.957
2015    5        4     2  57    4.3228   501.7    4.417      44.933
2015    5        4     3   3    4.3211   501.7    4.417      44.909
2015    5        4     3   9    4.3195   501.6    4.416      44.885
2015    5        4     3  15    4.3179   501.5    4.416      44.861
2015    5        4     3  20    4.3162   501.5    4.416      44.837
2015    5        4     3  26    4.3146   501.4    4.416      44.813
2015    5        4     3  32    4.3130   501.3    4.416      44.789
2015    5        4     3  37    4.3113   501.2    4.416      44.765
2015    5        4     3  43    4.3097   501.2    4.416      44.740
