year    month   day   hour  minute  B_enl V_enl   n_enl       T_enl
[year] [month] [day] [hour][minute] [nT]  [km/s]  [cm-3]      [kK]
2015    5        3     0   1    4.5001   515.7    4.308      48.118
2015    5        3     0   7    4.4983   515.6    4.307      48.098
2015    5        3     0  12    4.4965   515.6    4.306      48.079
2015    5        3     0  18    4.4947   515.5    4.305      48.059
2015    5        3     0  24    4.4930   515.5    4.304      48.040
2015    5        3     0  29    4.4912   515.4    4.304      48.021
2015    5        3     0  35    4.4894   515.4    4.303      48.003
2015    5        3     0  41    4.4877   515.3    4.302      47.984
2015    5        3     0  46    4.4860   515.3    4.302      47.966
2015    5        3     0  52    4.4842   515.2    4.301      47.948
2015    5        3     0  58    4.4825   515.1    4.301      47.930
2015    5        3     1   4    4.4807   515.1    4.301      47.912
2015    5        3     1   9    4.4790   515.0    4.300      47.895
2015    5        3     1  15    4.4772   515.0    4.300      47.877
2015    5        3     1  21    4.4754   514.9    4.300      47.860
2015    5        3     1  26    4.4736   514.9    4.300      47.843
2015    5        3     1  32    4.4718   514.8    4.299      47.826
2015    5        3     1  38    4.4699   514.7    4.299      47.809
2015    5        3     1  43    4.4681   514.7    4.299      47.792
2015    5        3     1  49    4.4662   514.6    4.299      47.775
2015    5        3     1  55    4.4644   514.6    4.298      47.758
2015    5        3     2   1    4.4625   514.5    4.298      47.741
2015    5        3     2   6    4.4606   514.4    4.298      47.724
2015    5        3     2  12    4.4587   514.4    4.297      47.706
2015    5        3     2  18    4.4569   514.3    4.297      47.688
2015    5        3     2  23    4.4550   514.2    4.296      47.670
2015    5        3     2  29    4.4531   514.2    4.296      47.652
2015    5        3     2  35    4.4512   514.1    4.295      47.633
2015    5        3     2  41    4.4493   514.0    4.295      47.615
2015    5        3     2  46    4.4474   514.0    4.294      47.596
2015    5        3     2  52    4.4455   513.9    4.294      47.578
2015    5        3     2  58    4.4436   513.8    4.293      47.559
2015    5        3     3   3    4.4417   513.8    4.293      47.539
2015    5        3     3   9    4.4398   513.7    4.292      47.520
2015    5        3     3  15    4.4380   513.6    4.291      47.501
2015    5        3     3  20    4.4361   513.6    4.290      47.482
2015    5        3     3  26    4.4343   513.5    4.290      47.462
2015    5        3     3  32    4.4324   513.4    4.289      47.443
2015    5        3     3  38    4.4306   513.4    4.288      47.423
2015    5        3     3  43    4.4287   513.3    4.287      47.403
2015    5        3     3  49    4.4269   513.2    4.286      47.383
2015    5        3     3  55    4.4251   513.1    4.285      47.363
2015    5        3     4   0    4.4233   513.1    4.284      47.343
2015    5        3     4   6    4.4215   513.0    4.283      47.323
2015    5        3     4  12    4.4197   512.9    4.282      47.302
2015    5        3     4  17    4.4179   512.9    4.281      47.282
2015    5        3     4  23    4.4162   512.8    4.280      47.261
2015    5        3     4  29    4.4144   512.7    4.279      47.240
2015    5        3     4  35    4.4126   512.6    4.278      47.219
2015    5        3     4  40    4.4109   512.6    4.277      47.197
2015    5        3     4  46    4.4091   512.5    4.276      47.175
2015    5        3     4  52    4.4074   512.4    4.275      47.153
2015    5        3     4  57    4.4056   512.3    4.273      47.131
2015    5        3     5   3    4.4039   512.3    4.272      47.109
2015    5        3     5   9    4.4022   512.2    4.271      47.086
2015    5        3     5  15    4.4005   512.1    4.270      47.063
2015    5        3     5  20    4.3987   512.0    4.268      47.040
2015    5        3     5  26    4.3970   512.0    4.267      47.016
2015    5        3     5  32    4.3953   511.9    4.266      46.992
2015    5        3     5  37    4.3936   511.8    4.264      46.968
2015    5        3     5  43    4.3919   511.7    4.263      46.944
2015    5        3     5  49    4.3902   511.7    4.261      46.919
2015    5        3     5  54    4.3885   511.6    4.260      46.895
2015    5        3     6   0    4.3868   511.5    4.259      46.870
2015    5        3     6   6    4.3851   511.4    4.257      46.845
2015    5        3     6  12    4.3834   511.4    4.256      46.819
2015    5        3     6  17    4.3817   511.3    4.255      46.794
2015    5        3     6  23    4.3800   511.2    4.254      46.769
2015    5        3     6  29    4.3784   511.1    4.252      46.744
2015    5        3     6  34    4.3767   511.0    4.251      46.719
2015    5        3     6  40    4.3751   511.0    4.250      46.694
2015    5        3     6  46    4.3735   510.9    4.249      46.669
2015    5        3     6  51    4.3718   510.8    4.248      46.644
2015    5        3     6  57    4.3702   510.7    4.247      46.620
2015    5        3     7   3    4.3687   510.6    4.246      46.596
2015    5        3     7   9    4.3671   510.6    4.245      46.572
2015    5        3     7  14    4.3655   510.5    4.245      46.548
2015    5        3     7  20    4.3640   510.4    4.244      46.526
2015    5        3     7  26    4.3625   510.3    4.243      46.503
2015    5        3     7  31    4.3610   510.3    4.243      46.481
2015    5        3     7  37    4.3595   510.2    4.242      46.460
2015    5        3     7  43    4.3581   510.1    4.242      46.439
2015    5        3     7  49    4.3566   510.0    4.242      46.418
2015    5        3     7  54    4.3551   510.0    4.241      46.398
2015    5        3     8   0    4.3537   509.9    4.241      46.378
2015    5        3     8   6    4.3522   509.8    4.241      46.359
2015    5        3     8  11    4.3507   509.7    4.241      46.340
2015    5        3     8  17    4.3492   509.7    4.241      46.321
2015    5        3     8  23    4.3477   509.6    4.241      46.302
2015    5        3     8  28    4.3462   509.5    4.241      46.284
2015    5        3     8  34    4.3446   509.5    4.241      46.266
2015    5        3     8  40    4.3431   509.4    4.241      46.249
2015    5        3     8  46    4.3415   509.3    4.241      46.231
2015    5        3     8  51    4.3399   509.2    4.241      46.214
2015    5        3     8  57    4.3383   509.2    4.241      46.196
2015    5        3     9   3    4.3367   509.1    4.241      46.178
2015    5        3     9   8    4.3351   509.0    4.241      46.160
2015    5        3     9  14    4.3334   508.9    4.241      46.142
2015    5        3     9  20    4.3318   508.8    4.241      46.123
2015    5        3     9  25    4.3301   508.8    4.241      46.103
2015    5        3     9  31    4.3285   508.7    4.240      46.084
2015    5        3     9  37    4.3268   508.6    4.240      46.063
2015    5        3     9  43    4.3251   508.5    4.240      46.043
2015    5        3     9  48    4.3235   508.4    4.240      46.022
2015    5        3     9  54    4.3218   508.3    4.239      46.001
2015    5        3    10   0    4.3201   508.3    4.239      45.979
2015    5        3    10   5    4.3184   508.2    4.239      45.957
2015    5        3    10  11    4.3168   508.1    4.238      45.934
2015    5        3    10  17    4.3151   508.0    4.238      45.912
2015    5        3    10  23    4.3135   507.9    4.238      45.889
2015    5        3    10  28    4.3119   507.8    4.238      45.867
2015    5        3    10  34    4.3102   507.7    4.238      45.844
2015    5        3    10  40    4.3087   507.6    4.237      45.821
2015    5        3    10  45    4.3071   507.6    4.237      45.798
2015    5        3    10  51    4.3055   507.5    4.237      45.775
2015    5        3    10  57    4.3040   507.4    4.237      45.753
2015    5        3    11   2    4.3025   507.3    4.238      45.730
2015    5        3    11   8    4.3010   507.2    4.238      45.708
2015    5        3    11  14    4.2995   507.1    4.238      45.686
2015    5        3    11  20    4.2981   507.0    4.238      45.664
2015    5        3    11  25    4.2967   506.9    4.239      45.643
2015    5        3    11  31    4.2953   506.8    4.239      45.621
2015    5        3    11  37    4.2939   506.7    4.240      45.600
2015    5        3    11  42    4.2926   506.6    4.240      45.580
2015    5        3    11  48    4.2912   506.6    4.241      45.560
2015    5        3    11  54    4.2899   506.5    4.242      45.540
2015    5        3    11  59    4.2885   506.4    4.242      45.521
2015    5        3    12   5    4.2872   506.3    4.243      45.502
2015    5        3    12  11    4.2858   506.2    4.244      45.483
2015    5        3    12  17    4.2844   506.1    4.244      45.465
2015    5        3    12  22    4.2830   506.0    4.245      45.445
2015    5        3    12  28    4.2816   505.9    4.245      45.425
2015    5        3    12  34    4.2802   505.8    4.245      45.405
2015    5        3    12  39    4.2788   505.8    4.245      45.384
2015    5        3    12  45    4.2773   505.7    4.245      45.363
2015    5        3    12  51    4.2759   505.6    4.245      45.341
2015    5        3    12  56    4.2744   505.5    4.245      45.319
2015    5        3    13   2    4.2730   505.4    4.245      45.296
2015    5        3    13   8    4.2715   505.3    4.245      45.273
2015    5        3    13  14    4.2701   505.2    4.244      45.249
2015    5        3    13  19    4.2686   505.1    4.244      45.224
2015    5        3    13  25    4.2671   505.0    4.244      45.200
2015    5        3    13  31    4.2656   504.9    4.243      45.174
2015    5        3    13  36    4.2641   504.9    4.243      45.149
2015    5        3    13  42    4.2626   504.8    4.242      45.123
2015    5        3    13  48    4.2611   504.7    4.241      45.097
2015    5        3    13  54    4.2596   504.6    4.241      45.071
2015    5        3    13  59    4.2581   504.5    4.240      45.044
2015    5        3    14   5    4.2567   504.4    4.239      45.017
2015    5        3    14  11    4.2552   504.3    4.239      44.990
2015    5        3    14  16    4.2537   504.2    4.238      44.963
2015    5        3    14  22    4.2522   504.1    4.237      44.936
2015    5        3    14  28    4.2507   504.0    4.237      44.909
2015    5        3    14  33    4.2492   503.9    4.236      44.881
2015    5        3    14  39    4.2477   503.8    4.235      44.854
2015    5        3    14  45    4.2462   503.7    4.234      44.826
2015    5        3    14  51    4.2447   503.6    4.233      44.799
2015    5        3    14  56    4.2433   503.5    4.233      44.771
2015    5        3    15   2    4.2417   503.4    4.232      44.743
2015    5        3    15   8    4.2402   503.4    4.231      44.715
2015    5        3    15  13    4.2387   503.3    4.230      44.687
2015    5        3    15  19    4.2372   503.2    4.229      44.659
2015    5        3    15  25    4.2357   503.1    4.228      44.630
2015    5        3    15  30    4.2342   503.0    4.227      44.602
2015    5        3    15  36    4.2326   502.9    4.226      44.573
2015    5        3    15  42    4.2311   502.8    4.226      44.544
2015    5        3    15  48    4.2296   502.7    4.225      44.515
2015    5        3    15  53    4.2280   502.6    4.224      44.485
2015    5        3    15  59    4.2265   502.5    4.223      44.456
2015    5        3    16   5    4.2249   502.4    4.222      44.426
2015    5        3    16  10    4.2234   502.3    4.221      44.396
2015    5        3    16  16    4.2218   502.2    4.219      44.366
2015    5        3    16  22    4.2203   502.1    4.218      44.335
2015    5        3    16  28    4.2188   502.0    4.217      44.305
2015    5        3    16  33    4.2172   501.9    4.216      44.274
2015    5        3    16  39    4.2157   501.8    4.215      44.243
2015    5        3    16  45    4.2142   501.7    4.214      44.211
2015    5        3    16  50    4.2126   501.6    4.213      44.180
2015    5        3    16  56    4.2111   501.5    4.212      44.148
2015    5        3    17   2    4.2096   501.4    4.211      44.117
2015    5        3    17   7    4.2081   501.3    4.210      44.085
2015    5        3    17  13    4.2066   501.2    4.209      44.053
2015    5        3    17  19    4.2051   501.1    4.208      44.021
2015    5        3    17  25    4.2036   500.9    4.207      43.989
2015    5        3    17  30    4.2021   500.8    4.206      43.958
2015    5        3    17  36    4.2007   500.7    4.206      43.926
2015    5        3    17  42    4.1992   500.6    4.205      43.895
2015    5        3    17  47    4.1978   500.5    4.204      43.864
2015    5        3    17  53    4.1964   500.4    4.204      43.833
2015    5        3    17  59    4.1950   500.3    4.203      43.802
2015    5        3    18   5    4.1936   500.2    4.203      43.772
2015    5        3    18  10    4.1923   500.1    4.203      43.743
2015    5        3    18  16    4.1909   499.9    4.203      43.714
2015    5        3    18  22    4.1897   499.8    4.203      43.685
2015    5        3    18  27    4.1884   499.7    4.203      43.658
2015    5        3    18  33    4.1871   499.6    4.203      43.631
2015    5        3    18  39    4.1859   499.5    4.204      43.605
2015    5        3    18  44    4.1847   499.4    4.204      43.579
2015    5        3    18  50    4.1836   499.3    4.205      43.554
2015    5        3    18  56    4.1824   499.2    4.206      43.531
2015    5        3    19   2    4.1813   499.1    4.207      43.509
2015    5        3    19   7    4.1801   499.0    4.208      43.488
2015    5        3    19  13    4.1790   498.8    4.209      43.468
2015    5        3    19  19    4.1778   498.7    4.211      43.448
2015    5        3    19  24    4.1767   498.6    4.212      43.430
2015    5        3    19  30    4.1755   498.5    4.213      43.411
2015    5        3    19  36    4.1743   498.4    4.214      43.393
2015    5        3    19  42    4.1732   498.3    4.216      43.374
2015    5        3    19  47    4.1720   498.2    4.217      43.355
2015    5        3    19  53    4.1708   498.1    4.218      43.337
2015    5        3    19  59    4.1696   498.0    4.219      43.318
2015    5        3    20   4    4.1684   497.9    4.221      43.299
2015    5        3    20  10    4.1672   497.8    4.222      43.280
2015    5        3    20  16    4.1659   497.7    4.223      43.260
2015    5        3    20  22    4.1646   497.6    4.224      43.240
2015    5        3    20  27    4.1634   497.5    4.225      43.220
2015    5        3    20  33    4.1620   497.4    4.226      43.199
2015    5        3    20  39    4.1607   497.2    4.227      43.178
2015    5        3    20  44    4.1593   497.1    4.228      43.157
2015    5        3    20  50    4.1580   497.0    4.229      43.135
2015    5        3    20  56    4.1566   496.9    4.230      43.113
2015    5        3    21   2    4.1552   496.8    4.231      43.090
2015    5        3    21   7    4.1538   496.7    4.232      43.067
2015    5        3    21  13    4.1523   496.6    4.233      43.044
2015    5        3    21  19    4.1509   496.5    4.233      43.020
2015    5        3    21  24    4.1495   496.3    4.234      42.995
2015    5        3    21  30    4.1480   496.2    4.235      42.970
2015    5        3    21  36    4.1465   496.1    4.235      42.945
2015    5        3    21  42    4.1451   496.0    4.236      42.919
2015    5        3    21  47    4.1436   495.9    4.236      42.893
2015    5        3    21  53    4.1422   495.8    4.237      42.867
2015    5        3    21  59    4.1407   495.6    4.237      42.840
2015    5        3    22   4    4.1392   495.5    4.237      42.813
2015    5        3    22  10    4.1378   495.4    4.238      42.786
2015    5        3    22  16    4.1364   495.3    4.238      42.758
2015    5        3    22  22    4.1350   495.1    4.239      42.731
2015    5        3    22  27    4.1336   495.0    4.239      42.703
2015    5        3    22  33    4.1322   494.9    4.239      42.675
2015    5        3    22  39    4.1309   494.8    4.240      42.648
2015    5        3    22  44    4.1296   494.6    4.240      42.620
2015    5        3    22  50    4.1283   494.5    4.240      42.593
2015    5        3    22  56    4.1270   494.4    4.241      42.565
2015    5        3    23   2    4.1258   494.3    4.241      42.538
2015    5        3    23   7    4.1245   494.1    4.241      42.511
2015    5        3    23  13    4.1233   494.0    4.241      42.485
2015    5        3    23  19    4.1221   493.9    4.242      42.458
2015    5        3    23  24    4.1209   493.8    4.242      42.431
2015    5        3    23  30    4.1197   493.7    4.242      42.404
2015    5        3    23  36    4.1185   493.5    4.242      42.377
2015    5        3    23  41    4.1173   493.4    4.242      42.350
2015    5        3    23  47    4.1161   493.3    4.242      42.322
2015    5        3    23  53    4.1149   493.2    4.242      42.295
2015    5        3    23  59    4.1137   493.0    4.241      42.267
2015    5        4     0   4    4.1125   492.9    4.241      42.239
2015    5        4     0  10    4.1113   492.8    4.241      42.211
2015    5        4     0  16    4.1101   492.7    4.241      42.183
2015    5        4     0  21    4.1090   492.6    4.240      42.154
2015    5        4     0  27    4.1078   492.4    4.240      42.125
2015    5        4     0  33    4.1066   492.3    4.240      42.095
2015    5        4     0  38    4.1054   492.2    4.239      42.065
2015    5        4     0  44    4.1042   492.0    4.239      42.035
2015    5        4     0  50    4.1030   491.9    4.238      42.005
2015    5        4     0  56    4.1018   491.8    4.238      41.974
2015    5        4     1   1    4.1006   491.7    4.237      41.943
2015    5        4     1   7    4.0995   491.5    4.237      41.912
2015    5        4     1  13    4.0983   491.4    4.236      41.881
2015    5        4     1  18    4.0971   491.3    4.236      41.849
2015    5        4     1  24    4.0959   491.1    4.235      41.818
2015    5        4     1  30    4.0948   491.0    4.235      41.786
2015    5        4     1  35    4.0936   490.9    4.234      41.754
2015    5        4     1  41    4.0925   490.7    4.234      41.722
2015    5        4     1  47    4.0913   490.6    4.234      41.690
2015    5        4     1  53    4.0902   490.5    4.233      41.659
2015    5        4     1  58    4.0890   490.3    4.233      41.627
2015    5        4     2   4    4.0879   490.2    4.233      41.596
2015    5        4     2  10    4.0868   490.1    4.232      41.565
2015    5        4     2  15    4.0857   489.9    4.232      41.533
2015    5        4     2  21    4.0845   489.8    4.232      41.503
2015    5        4     2  27    4.0834   489.7    4.232      41.472
2015    5        4     2  32    4.0824   489.5    4.232      41.442
2015    5        4     2  38    4.0813   489.4    4.232      41.411
2015    5        4     2  44    4.0802   489.3    4.232      41.382
2015    5        4     2  49    4.0792   489.1    4.233      41.352
2015    5        4     2  55    4.0781   489.0    4.233      41.323
2015    5        4     3   1    4.0770   488.9    4.233      41.294
2015    5        4     3   6    4.0760   488.7    4.234      41.265
2015    5        4     3  12    4.0749   488.6    4.234      41.236
2015    5        4     3  18    4.0739   488.4    4.234      41.208
2015    5        4     3  23    4.0728   488.3    4.235      41.179
2015    5        4     3  29    4.0717   488.2    4.236      41.151
2015    5        4     3  35    4.0706   488.0    4.236      41.123
2015    5        4     3  40    4.0695   487.9    4.237      41.095
