year    month   day   hour  minute  B_enl V_enl   n_enl       T_enl
[year] [month] [day] [hour][minute] [nT]  [km/s]  [cm-3]      [kK]
2015    5        3     0   4    4.7145   515.9    4.525      49.437
2015    5        3     0   9    4.7129   515.9    4.524      49.429
2015    5        3     0  15    4.7114   515.9    4.522      49.420
2015    5        3     0  21    4.7098   515.9    4.521      49.412
2015    5        3     0  27    4.7083   515.9    4.519      49.403
2015    5        3     0  32    4.7067   515.9    4.518      49.394
2015    5        3     0  38    4.7051   515.9    4.517      49.385
2015    5        3     0  44    4.7036   515.9    4.515      49.375
2015    5        3     0  50    4.7020   515.8    4.514      49.366
2015    5        3     0  55    4.7004   515.8    4.512      49.356
2015    5        3     1   1    4.6989   515.8    4.511      49.346
2015    5        3     1   7    4.6973   515.8    4.509      49.335
2015    5        3     1  12    4.6957   515.8    4.508      49.325
2015    5        3     1  18    4.6941   515.8    4.506      49.314
2015    5        3     1  24    4.6926   515.8    4.505      49.303
2015    5        3     1  30    4.6910   515.8    4.503      49.292
2015    5        3     1  35    4.6894   515.8    4.502      49.280
2015    5        3     1  41    4.6878   515.8    4.500      49.269
2015    5        3     1  47    4.6862   515.8    4.499      49.257
2015    5        3     1  52    4.6846   515.8    4.497      49.245
2015    5        3     1  58    4.6830   515.8    4.496      49.234
2015    5        3     2   4    4.6815   515.7    4.494      49.222
2015    5        3     2  10    4.6799   515.7    4.493      49.210
2015    5        3     2  15    4.6783   515.7    4.491      49.198
2015    5        3     2  21    4.6767   515.7    4.490      49.186
2015    5        3     2  27    4.6751   515.7    4.489      49.174
2015    5        3     2  33    4.6735   515.7    4.487      49.162
2015    5        3     2  38    4.6719   515.7    4.486      49.150
2015    5        3     2  44    4.6703   515.7    4.485      49.138
2015    5        3     2  50    4.6688   515.7    4.483      49.125
2015    5        3     2  55    4.6672   515.6    4.482      49.113
2015    5        3     3   1    4.6656   515.6    4.481      49.102
2015    5        3     3   7    4.6640   515.6    4.479      49.090
2015    5        3     3  13    4.6624   515.6    4.478      49.078
2015    5        3     3  18    4.6608   515.6    4.477      49.066
2015    5        3     3  24    4.6592   515.6    4.476      49.054
2015    5        3     3  30    4.6576   515.6    4.475      49.043
2015    5        3     3  35    4.6560   515.5    4.474      49.032
2015    5        3     3  41    4.6544   515.5    4.473      49.020
2015    5        3     3  47    4.6528   515.5    4.472      49.009
2015    5        3     3  53    4.6513   515.5    4.471      48.998
2015    5        3     3  58    4.6497   515.5    4.470      48.987
2015    5        3     4   4    4.6481   515.5    4.469      48.977
2015    5        3     4  10    4.6465   515.5    4.468      48.966
2015    5        3     4  15    4.6449   515.4    4.467      48.956
2015    5        3     4  21    4.6433   515.4    4.467      48.945
2015    5        3     4  27    4.6418   515.4    4.466      48.935
2015    5        3     4  33    4.6402   515.4    4.465      48.925
2015    5        3     4  38    4.6386   515.4    4.464      48.915
2015    5        3     4  44    4.6370   515.4    4.464      48.906
2015    5        3     4  50    4.6354   515.3    4.463      48.896
2015    5        3     4  56    4.6338   515.3    4.462      48.887
2015    5        3     5   1    4.6323   515.3    4.461      48.878
2015    5        3     5   7    4.6307   515.3    4.461      48.869
2015    5        3     5  13    4.6291   515.3    4.460      48.860
2015    5        3     5  18    4.6275   515.3    4.459      48.851
2015    5        3     5  24    4.6259   515.2    4.459      48.842
2015    5        3     5  30    4.6243   515.2    4.458      48.833
2015    5        3     5  36    4.6227   515.2    4.457      48.825
2015    5        3     5  41    4.6211   515.2    4.456      48.816
2015    5        3     5  47    4.6195   515.2    4.456      48.807
2015    5        3     5  53    4.6180   515.1    4.455      48.799
2015    5        3     5  58    4.6164   515.1    4.454      48.790
2015    5        3     6   4    4.6148   515.1    4.453      48.781
2015    5        3     6  10    4.6132   515.1    4.452      48.773
2015    5        3     6  16    4.6116   515.1    4.451      48.764
2015    5        3     6  21    4.6100   515.0    4.451      48.754
2015    5        3     6  27    4.6084   515.0    4.450      48.745
2015    5        3     6  33    4.6068   515.0    4.449      48.735
2015    5        3     6  38    4.6053   515.0    4.448      48.725
2015    5        3     6  44    4.6037   514.9    4.447      48.715
2015    5        3     6  50    4.6021   514.9    4.446      48.705
2015    5        3     6  56    4.6006   514.9    4.445      48.695
2015    5        3     7   1    4.5990   514.9    4.444      48.684
2015    5        3     7   7    4.5975   514.9    4.443      48.673
2015    5        3     7  13    4.5959   514.8    4.442      48.662
2015    5        3     7  19    4.5944   514.8    4.441      48.651
2015    5        3     7  24    4.5928   514.8    4.440      48.639
2015    5        3     7  30    4.5913   514.8    4.439      48.627
2015    5        3     7  36    4.5897   514.7    4.437      48.615
2015    5        3     7  41    4.5882   514.7    4.436      48.603
2015    5        3     7  47    4.5866   514.7    4.435      48.591
2015    5        3     7  53    4.5851   514.7    4.434      48.578
2015    5        3     7  59    4.5835   514.6    4.433      48.566
2015    5        3     8   4    4.5820   514.6    4.432      48.553
2015    5        3     8  10    4.5805   514.6    4.430      48.539
2015    5        3     8  16    4.5789   514.6    4.429      48.526
2015    5        3     8  21    4.5774   514.5    4.428      48.513
2015    5        3     8  27    4.5758   514.5    4.426      48.499
2015    5        3     8  33    4.5743   514.5    4.425      48.485
2015    5        3     8  39    4.5727   514.5    4.424      48.471
2015    5        3     8  44    4.5711   514.5    4.422      48.457
2015    5        3     8  50    4.5695   514.4    4.421      48.442
2015    5        3     8  56    4.5679   514.4    4.420      48.427
2015    5        3     9   1    4.5664   514.4    4.418      48.413
2015    5        3     9   7    4.5648   514.3    4.417      48.397
2015    5        3     9  13    4.5632   514.3    4.416      48.382
2015    5        3     9  19    4.5616   514.3    4.415      48.367
2015    5        3     9  24    4.5600   514.3    4.413      48.351
2015    5        3     9  30    4.5583   514.2    4.412      48.336
2015    5        3     9  36    4.5567   514.2    4.411      48.320
2015    5        3     9  42    4.5551   514.2    4.409      48.304
2015    5        3     9  47    4.5534   514.2    4.408      48.288
2015    5        3     9  53    4.5518   514.1    4.407      48.272
2015    5        3     9  59    4.5502   514.1    4.406      48.255
2015    5        3    10   4    4.5485   514.1    4.404      48.239
2015    5        3    10  10    4.5469   514.0    4.403      48.223
2015    5        3    10  16    4.5452   514.0    4.402      48.207
2015    5        3    10  22    4.5435   514.0    4.401      48.190
2015    5        3    10  27    4.5419   514.0    4.400      48.174
2015    5        3    10  33    4.5402   513.9    4.399      48.157
2015    5        3    10  39    4.5385   513.9    4.398      48.141
2015    5        3    10  44    4.5368   513.9    4.397      48.124
2015    5        3    10  50    4.5351   513.8    4.396      48.108
2015    5        3    10  56    4.5334   513.8    4.395      48.092
2015    5        3    11   2    4.5317   513.8    4.394      48.075
2015    5        3    11   7    4.5301   513.7    4.393      48.059
2015    5        3    11  13    4.5283   513.7    4.392      48.043
2015    5        3    11  19    4.5267   513.7    4.391      48.026
2015    5        3    11  25    4.5249   513.6    4.390      48.010
2015    5        3    11  30    4.5232   513.6    4.390      47.994
2015    5        3    11  36    4.5215   513.6    4.389      47.977
2015    5        3    11  42    4.5198   513.5    4.388      47.961
2015    5        3    11  47    4.5181   513.5    4.387      47.945
2015    5        3    11  53    4.5164   513.5    4.386      47.929
2015    5        3    11  59    4.5146   513.4    4.386      47.913
2015    5        3    12   5    4.5129   513.4    4.385      47.897
2015    5        3    12  10    4.5112   513.4    4.384      47.881
2015    5        3    12  16    4.5095   513.3    4.383      47.865
2015    5        3    12  22    4.5077   513.3    4.383      47.849
2015    5        3    12  27    4.5060   513.3    4.382      47.834
2015    5        3    12  33    4.5043   513.2    4.381      47.818
2015    5        3    12  39    4.5025   513.2    4.380      47.802
2015    5        3    12  45    4.5008   513.1    4.380      47.786
2015    5        3    12  50    4.4991   513.1    4.379      47.770
2015    5        3    12  56    4.4973   513.1    4.378      47.754
2015    5        3    13   2    4.4956   513.0    4.377      47.739
2015    5        3    13   7    4.4939   513.0    4.377      47.722
2015    5        3    13  13    4.4921   512.9    4.376      47.706
2015    5        3    13  19    4.4904   512.9    4.375      47.691
2015    5        3    13  25    4.4887   512.9    4.374      47.674
2015    5        3    13  30    4.4870   512.8    4.373      47.658
2015    5        3    13  36    4.4853   512.8    4.372      47.642
2015    5        3    13  42    4.4836   512.7    4.371      47.626
2015    5        3    13  48    4.4819   512.7    4.370      47.610
2015    5        3    13  53    4.4802   512.6    4.369      47.593
2015    5        3    13  59    4.4785   512.6    4.369      47.577
2015    5        3    14   5    4.4768   512.6    4.368      47.560
2015    5        3    14  10    4.4751   512.5    4.367      47.544
2015    5        3    14  16    4.4734   512.5    4.365      47.527
2015    5        3    14  22    4.4718   512.4    4.364      47.510
2015    5        3    14  28    4.4701   512.4    4.363      47.493
2015    5        3    14  33    4.4685   512.3    4.362      47.476
2015    5        3    14  39    4.4669   512.3    4.361      47.459
2015    5        3    14  45    4.4652   512.2    4.360      47.442
2015    5        3    14  50    4.4636   512.2    4.359      47.424
2015    5        3    14  56    4.4620   512.1    4.358      47.407
2015    5        3    15   2    4.4604   512.1    4.357      47.389
2015    5        3    15   8    4.4588   512.0    4.356      47.371
2015    5        3    15  13    4.4572   512.0    4.355      47.353
2015    5        3    15  19    4.4556   511.9    4.354      47.335
2015    5        3    15  25    4.4540   511.9    4.353      47.317
2015    5        3    15  30    4.4524   511.8    4.352      47.298
2015    5        3    15  36    4.4508   511.8    4.351      47.279
2015    5        3    15  42    4.4492   511.7    4.350      47.261
2015    5        3    15  48    4.4476   511.7    4.349      47.241
2015    5        3    15  53    4.4460   511.6    4.347      47.222
2015    5        3    15  59    4.4443   511.6    4.346      47.202
2015    5        3    16   5    4.4427   511.5    4.345      47.182
2015    5        3    16  11    4.4410   511.5    4.345      47.162
2015    5        3    16  16    4.4394   511.4    4.344      47.142
2015    5        3    16  22    4.4377   511.4    4.343      47.122
2015    5        3    16  28    4.4361   511.3    4.342      47.101
2015    5        3    16  33    4.4344   511.3    4.341      47.080
2015    5        3    16  39    4.4327   511.2    4.340      47.060
2015    5        3    16  45    4.4310   511.1    4.339      47.039
2015    5        3    16  51    4.4294   511.1    4.338      47.017
2015    5        3    16  56    4.4276   511.0    4.338      46.996
2015    5        3    17   2    4.4260   511.0    4.337      46.975
2015    5        3    17   8    4.4243   510.9    4.336      46.954
2015    5        3    17  13    4.4226   510.9    4.336      46.932
2015    5        3    17  19    4.4209   510.8    4.335      46.911
2015    5        3    17  25    4.4192   510.8    4.334      46.889
2015    5        3    17  31    4.4175   510.7    4.334      46.868
2015    5        3    17  36    4.4158   510.7    4.333      46.846
2015    5        3    17  42    4.4141   510.6    4.333      46.824
2015    5        3    17  48    4.4124   510.5    4.332      46.803
2015    5        3    17  53    4.4107   510.5    4.332      46.781
2015    5        3    17  59    4.4090   510.4    4.332      46.760
2015    5        3    18   5    4.4073   510.4    4.331      46.738
2015    5        3    18  11    4.4056   510.3    4.331      46.716
2015    5        3    18  16    4.4039   510.3    4.330      46.695
2015    5        3    18  22    4.4022   510.2    4.330      46.673
2015    5        3    18  28    4.4005   510.1    4.330      46.651
2015    5        3    18  34    4.3988   510.1    4.330      46.630
2015    5        3    18  39    4.3971   510.0    4.329      46.608
2015    5        3    18  45    4.3954   510.0    4.329      46.587
2015    5        3    18  51    4.3937   509.9    4.329      46.565
2015    5        3    18  56    4.3920   509.9    4.328      46.544
2015    5        3    19   2    4.3902   509.8    4.328      46.522
2015    5        3    19   8    4.3885   509.7    4.328      46.500
2015    5        3    19  14    4.3868   509.7    4.327      46.478
2015    5        3    19  19    4.3851   509.6    4.327      46.456
2015    5        3    19  25    4.3834   509.6    4.327      46.434
2015    5        3    19  31    4.3816   509.5    4.326      46.411
2015    5        3    19  36    4.3799   509.4    4.326      46.389
2015    5        3    19  42    4.3782   509.4    4.325      46.366
2015    5        3    19  48    4.3765   509.3    4.325      46.343
2015    5        3    19  54    4.3747   509.2    4.324      46.321
2015    5        3    19  59    4.3730   509.2    4.324      46.297
2015    5        3    20   5    4.3713   509.1    4.323      46.274
2015    5        3    20  11    4.3696   509.0    4.323      46.251
2015    5        3    20  16    4.3679   509.0    4.322      46.227
2015    5        3    20  22    4.3662   508.9    4.321      46.204
2015    5        3    20  28    4.3644   508.8    4.321      46.180
2015    5        3    20  34    4.3628   508.8    4.320      46.156
2015    5        3    20  39    4.3610   508.7    4.319      46.132
2015    5        3    20  45    4.3594   508.6    4.318      46.107
2015    5        3    20  51    4.3577   508.6    4.318      46.083
2015    5        3    20  57    4.3560   508.5    4.317      46.058
2015    5        3    21   2    4.3543   508.4    4.316      46.033
2015    5        3    21   8    4.3527   508.4    4.315      46.008
2015    5        3    21  14    4.3510   508.3    4.314      45.983
2015    5        3    21  19    4.3494   508.2    4.313      45.957
2015    5        3    21  25    4.3477   508.2    4.312      45.931
2015    5        3    21  31    4.3460   508.1    4.312      45.906
2015    5        3    21  37    4.3444   508.0    4.311      45.879
2015    5        3    21  42    4.3427   507.9    4.310      45.853
2015    5        3    21  48    4.3411   507.9    4.309      45.826
2015    5        3    21  54    4.3394   507.8    4.308      45.800
2015    5        3    21  59    4.3378   507.7    4.307      45.772
2015    5        3    22   5    4.3361   507.7    4.306      45.745
2015    5        3    22  11    4.3345   507.6    4.305      45.718
2015    5        3    22  17    4.3328   507.5    4.304      45.690
2015    5        3    22  22    4.3312   507.4    4.303      45.662
2015    5        3    22  28    4.3295   507.4    4.301      45.634
2015    5        3    22  34    4.3278   507.3    4.300      45.605
2015    5        3    22  40    4.3262   507.2    4.299      45.577
2015    5        3    22  45    4.3245   507.1    4.298      45.548
2015    5        3    22  51    4.3228   507.0    4.297      45.519
2015    5        3    22  57    4.3211   507.0    4.296      45.489
2015    5        3    23   2    4.3194   506.9    4.295      45.460
2015    5        3    23   8    4.3178   506.8    4.294      45.430
2015    5        3    23  14    4.3161   506.7    4.293      45.401
2015    5        3    23  20    4.3144   506.6    4.292      45.371
2015    5        3    23  25    4.3127   506.5    4.291      45.341
2015    5        3    23  31    4.3110   506.5    4.291      45.311
2015    5        3    23  37    4.3094   506.4    4.290      45.282
2015    5        3    23  42    4.3077   506.3    4.289      45.252
2015    5        3    23  48    4.3060   506.2    4.288      45.222
2015    5        3    23  54    4.3043   506.1    4.287      45.193
2015    5        4     0   0    4.3027   506.0    4.287      45.164
2015    5        4     0   5    4.3010   506.0    4.286      45.135
2015    5        4     0  11    4.2993   505.9    4.286      45.106
2015    5        4     0  17    4.2977   505.8    4.285      45.077
2015    5        4     0  22    4.2961   505.7    4.285      45.049
2015    5        4     0  28    4.2944   505.6    4.285      45.020
2015    5        4     0  34    4.2928   505.5    4.284      44.993
2015    5        4     0  40    4.2912   505.4    4.284      44.965
2015    5        4     0  45    4.2895   505.4    4.284      44.938
2015    5        4     0  51    4.2879   505.3    4.284      44.911
2015    5        4     0  57    4.2863   505.2    4.284      44.884
2015    5        4     1   3    4.2847   505.1    4.284      44.857
2015    5        4     1   8    4.2831   505.0    4.284      44.831
2015    5        4     1  14    4.2815   504.9    4.284      44.804
2015    5        4     1  20    4.2799   504.8    4.284      44.778
2015    5        4     1  25    4.2782   504.8    4.284      44.752
2015    5        4     1  31    4.2766   504.7    4.285      44.725
2015    5        4     1  37    4.2750   504.6    4.285      44.699
2015    5        4     1  43    4.2734   504.5    4.285      44.673
2015    5        4     1  48    4.2718   504.4    4.285      44.646
2015    5        4     1  54    4.2702   504.3    4.285      44.620
2015    5        4     2   0    4.2686   504.2    4.286      44.593
2015    5        4     2   5    4.2669   504.1    4.286      44.566
2015    5        4     2  11    4.2653   504.1    4.286      44.539
2015    5        4     2  17    4.2637   504.0    4.286      44.512
2015    5        4     2  23    4.2620   503.9    4.287      44.484
2015    5        4     2  28    4.2604   503.8    4.287      44.456
2015    5        4     2  34    4.2588   503.7    4.287      44.428
2015    5        4     2  40    4.2571   503.6    4.287      44.400
2015    5        4     2  45    4.2555   503.5    4.287      44.371
2015    5        4     2  51    4.2539   503.4    4.287      44.342
2015    5        4     2  57    4.2522   503.3    4.287      44.313
2015    5        4     3   3    4.2506   503.2    4.287      44.283
2015    5        4     3   8    4.2490   503.1    4.288      44.254
2015    5        4     3  14    4.2474   503.0    4.288      44.223
2015    5        4     3  20    4.2458   502.9    4.288      44.193
2015    5        4     3  26    4.2442   502.8    4.288      44.163
2015    5        4     3  31    4.2426   502.7    4.288      44.132
2015    5        4     3  37    4.2410   502.6    4.288      44.101
2015    5        4     3  43    4.2394   502.5    4.288      44.070
2015    5        4     3  48    4.2379   502.4    4.288      44.039
