year    month   day   hour  minute  B_enl V_enl   n_enl       T_enl
[year] [month] [day] [hour][minute] [nT]  [km/s]  [cm-3]      [kK]
2015    5        6     0   5    5.0672   448.0    6.124      37.000
2015    5        6     0  11    5.0698   448.0    6.128      37.025
2015    5        6     0  16    5.0724   448.0    6.131      37.052
2015    5        6     0  22    5.0750   448.1    6.134      37.079
2015    5        6     0  27    5.0775   448.1    6.137      37.108
2015    5        6     0  33    5.0801   448.1    6.140      37.137
2015    5        6     0  39    5.0826   448.1    6.143      37.167
2015    5        6     0  44    5.0851   448.1    6.146      37.196
2015    5        6     0  50    5.0877   448.2    6.149      37.226
2015    5        6     0  55    5.0902   448.2    6.151      37.255
2015    5        6     1   1    5.0926   448.2    6.153      37.283
2015    5        6     1   6    5.0951   448.2    6.155      37.312
2015    5        6     1  12    5.0976   448.2    6.157      37.340
2015    5        6     1  18    5.1000   448.2    6.159      37.367
2015    5        6     1  23    5.1024   448.3    6.160      37.395
2015    5        6     1  29    5.1049   448.3    6.162      37.421
2015    5        6     1  34    5.1073   448.3    6.163      37.447
2015    5        6     1  40    5.1097   448.3    6.165      37.473
2015    5        6     1  46    5.1121   448.3    6.166      37.498
2015    5        6     1  51    5.1146   448.3    6.167      37.522
2015    5        6     1  57    5.1170   448.4    6.168      37.546
2015    5        6     2   2    5.1194   448.4    6.169      37.570
2015    5        6     2   8    5.1218   448.4    6.169      37.593
2015    5        6     2  13    5.1242   448.4    6.170      37.616
2015    5        6     2  19    5.1266   448.4    6.171      37.638
2015    5        6     2  25    5.1290   448.4    6.171      37.659
2015    5        6     2  30    5.1314   448.5    6.171      37.680
2015    5        6     2  36    5.1338   448.5    6.172      37.701
2015    5        6     2  41    5.1362   448.5    6.172      37.721
2015    5        6     2  47    5.1386   448.5    6.172      37.741
2015    5        6     2  53    5.1410   448.5    6.172      37.760
2015    5        6     2  58    5.1434   448.5    6.173      37.779
2015    5        6     3   4    5.1458   448.6    6.173      37.798
2015    5        6     3   9    5.1482   448.6    6.173      37.816
2015    5        6     3  15    5.1505   448.6    6.173      37.834
2015    5        6     3  20    5.1529   448.6    6.173      37.851
2015    5        6     3  26    5.1554   448.6    6.173      37.868
2015    5        6     3  32    5.1578   448.6    6.173      37.885
2015    5        6     3  37    5.1602   448.7    6.173      37.902
2015    5        6     3  43    5.1626   448.7    6.172      37.919
2015    5        6     3  48    5.1650   448.7    6.172      37.935
2015    5        6     3  54    5.1674   448.7    6.172      37.951
2015    5        6     3  59    5.1698   448.7    6.172      37.967
2015    5        6     4   5    5.1722   448.8    6.172      37.983
2015    5        6     4  11    5.1747   448.8    6.172      37.999
2015    5        6     4  16    5.1771   448.8    6.172      38.015
2015    5        6     4  22    5.1795   448.8    6.172      38.031
2015    5        6     4  27    5.1819   448.9    6.172      38.047
2015    5        6     4  33    5.1844   448.9    6.172      38.063
2015    5        6     4  39    5.1868   448.9    6.172      38.078
2015    5        6     4  44    5.1893   448.9    6.172      38.094
2015    5        6     4  50    5.1917   449.0    6.172      38.110
2015    5        6     4  55    5.1941   449.0    6.172      38.126
2015    5        6     5   1    5.1966   449.0    6.172      38.142
2015    5        6     5   6    5.1990   449.0    6.173      38.158
2015    5        6     5  12    5.2014   449.1    6.173      38.174
2015    5        6     5  18    5.2039   449.1    6.173      38.190
2015    5        6     5  23    5.2063   449.1    6.173      38.206
2015    5        6     5  29    5.2087   449.2    6.174      38.223
2015    5        6     5  34    5.2112   449.2    6.174      38.239
2015    5        6     5  40    5.2136   449.2    6.175      38.256
2015    5        6     5  46    5.2160   449.2    6.175      38.273
2015    5        6     5  51    5.2184   449.3    6.176      38.290
2015    5        6     5  57    5.2209   449.3    6.177      38.308
2015    5        6     6   2    5.2233   449.4    6.178      38.325
2015    5        6     6   8    5.2257   449.4    6.179      38.343
2015    5        6     6  13    5.2281   449.4    6.180      38.361
2015    5        6     6  19    5.2306   449.5    6.181      38.380
2015    5        6     6  25    5.2330   449.5    6.182      38.399
2015    5        6     6  30    5.2354   449.5    6.183      38.418
2015    5        6     6  36    5.2378   449.6    6.185      38.438
2015    5        6     6  41    5.2403   449.6    6.186      38.458
2015    5        6     6  47    5.2428   449.6    6.188      38.478
2015    5        6     6  53    5.2452   449.7    6.190      38.499
2015    5        6     6  58    5.2477   449.7    6.192      38.520
2015    5        6     7   4    5.2502   449.8    6.194      38.542
2015    5        6     7   9    5.2527   449.8    6.197      38.565
2015    5        6     7  15    5.2552   449.9    6.199      38.589
2015    5        6     7  20    5.2577   449.9    6.202      38.614
2015    5        6     7  26    5.2602   450.0    6.204      38.642
2015    5        6     7  32    5.2626   450.0    6.207      38.671
2015    5        6     7  37    5.2651   450.1    6.209      38.702
2015    5        6     7  43    5.2676   450.1    6.212      38.733
2015    5        6     7  48    5.2701   450.2    6.214      38.766
2015    5        6     7  54    5.2725   450.2    6.217      38.800
2015    5        6     8   0    5.2750   450.3    6.219      38.834
2015    5        6     8   5    5.2774   450.4    6.222      38.868
2015    5        6     8  11    5.2798   450.4    6.224      38.903
2015    5        6     8  16    5.2822   450.5    6.227      38.938
2015    5        6     8  22    5.2847   450.5    6.230      38.973
2015    5        6     8  27    5.2871   450.6    6.232      39.008
2015    5        6     8  33    5.2895   450.6    6.235      39.043
2015    5        6     8  39    5.2919   450.7    6.237      39.080
2015    5        6     8  44    5.2942   450.8    6.240      39.117
2015    5        6     8  50    5.2966   450.8    6.243      39.155
2015    5        6     8  55    5.2990   450.9    6.245      39.194
2015    5        6     9   1    5.3014   451.0    6.248      39.233
2015    5        6     9   6    5.3037   451.0    6.250      39.273
2015    5        6     9  12    5.3060   451.1    6.253      39.313
2015    5        6     9  18    5.3084   451.2    6.255      39.352
2015    5        6     9  23    5.3106   451.2    6.257      39.391
2015    5        6     9  29    5.3129   451.3    6.259      39.430
2015    5        6     9  34    5.3151   451.4    6.261      39.470
2015    5        6     9  40    5.3173   451.4    6.263      39.510
2015    5        6     9  46    5.3194   451.5    6.264      39.550
2015    5        6     9  51    5.3216   451.6    6.265      39.590
2015    5        6     9  57    5.3237   451.7    6.266      39.630
2015    5        6    10   2    5.3257   451.7    6.267      39.669
2015    5        6    10   8    5.3278   451.8    6.268      39.708
2015    5        6    10  13    5.3298   451.9    6.268      39.745
2015    5        6    10  19    5.3318   452.0    6.269      39.782
2015    5        6    10  25    5.3337   452.0    6.269      39.818
2015    5        6    10  30    5.3356   452.1    6.269      39.853
2015    5        6    10  36    5.3375   452.2    6.269      39.888
2015    5        6    10  41    5.3394   452.3    6.268      39.921
2015    5        6    10  47    5.3413   452.3    6.267      39.953
2015    5        6    10  53    5.3431   452.4    6.267      39.985
2015    5        6    10  58    5.3449   452.5    6.266      40.016
2015    5        6    11   4    5.3467   452.6    6.265      40.046
2015    5        6    11   9    5.3485   452.6    6.264      40.075
2015    5        6    11  15    5.3503   452.7    6.262      40.103
2015    5        6    11  20    5.3520   452.8    6.261      40.131
2015    5        6    11  26    5.3537   452.9    6.260      40.158
2015    5        6    11  32    5.3555   452.9    6.258      40.184
2015    5        6    11  37    5.3571   453.0    6.256      40.209
2015    5        6    11  43    5.3588   453.1    6.254      40.234
2015    5        6    11  48    5.3605   453.1    6.253      40.258
2015    5        6    11  54    5.3622   453.2    6.251      40.282
2015    5        6    12   0    5.3638   453.3    6.249      40.305
2015    5        6    12   5    5.3655   453.4    6.247      40.328
2015    5        6    12  11    5.3671   453.4    6.245      40.350
2015    5        6    12  16    5.3687   453.5    6.242      40.371
2015    5        6    12  22    5.3703   453.6    6.240      40.392
2015    5        6    12  27    5.3719   453.7    6.238      40.413
2015    5        6    12  33    5.3735   453.7    6.236      40.433
2015    5        6    12  39    5.3751   453.8    6.233      40.453
2015    5        6    12  44    5.3767   453.9    6.231      40.472
2015    5        6    12  50    5.3783   454.0    6.229      40.492
2015    5        6    12  55    5.3798   454.0    6.226      40.511
2015    5        6    13   1    5.3814   454.1    6.224      40.529
2015    5        6    13   6    5.3830   454.2    6.222      40.548
2015    5        6    13  12    5.3845   454.3    6.219      40.566
2015    5        6    13  18    5.3861   454.3    6.217      40.584
2015    5        6    13  23    5.3876   454.4    6.215      40.602
2015    5        6    13  29    5.3892   454.5    6.213      40.620
2015    5        6    13  34    5.3908   454.6    6.210      40.638
2015    5        6    13  40    5.3923   454.6    6.208      40.656
2015    5        6    13  46    5.3939   454.7    6.206      40.673
2015    5        6    13  51    5.3954   454.8    6.204      40.691
2015    5        6    13  57    5.3970   454.9    6.202      40.709
2015    5        6    14   2    5.3986   454.9    6.200      40.727
2015    5        6    14   8    5.4002   455.0    6.199      40.745
2015    5        6    14  13    5.4017   455.1    6.197      40.763
2015    5        6    14  19    5.4033   455.2    6.195      40.782
2015    5        6    14  25    5.4049   455.3    6.194      40.800
2015    5        6    14  30    5.4065   455.3    6.192      40.819
2015    5        6    14  36    5.4081   455.4    6.191      40.838
2015    5        6    14  41    5.4097   455.5    6.190      40.858
2015    5        6    14  47    5.4112   455.6    6.189      40.878
2015    5        6    14  53    5.4128   455.7    6.188      40.898
2015    5        6    14  58    5.4144   455.7    6.188      40.919
2015    5        6    15   4    5.4160   455.8    6.187      40.940
2015    5        6    15   9    5.4176   455.9    6.187      40.961
2015    5        6    15  15    5.4192   456.0    6.187      40.983
2015    5        6    15  20    5.4208   456.1    6.187      41.006
2015    5        6    15  26    5.4224   456.2    6.188      41.030
2015    5        6    15  32    5.4240   456.2    6.188      41.054
2015    5        6    15  37    5.4256   456.3    6.189      41.079
2015    5        6    15  43    5.4272   456.4    6.190      41.105
2015    5        6    15  48    5.4288   456.5    6.191      41.133
2015    5        6    15  54    5.4303   456.6    6.192      41.163
2015    5        6    16   0    5.4319   456.7    6.193      41.194
2015    5        6    16   5    5.4335   456.8    6.195      41.227
2015    5        6    16  11    5.4351   456.9    6.196      41.260
2015    5        6    16  16    5.4366   457.0    6.197      41.295
2015    5        6    16  22    5.4381   457.1    6.199      41.329
2015    5        6    16  27    5.4397   457.2    6.200      41.364
2015    5        6    16  33    5.4412   457.3    6.202      41.398
2015    5        6    16  39    5.4426   457.4    6.203      41.433
2015    5        6    16  44    5.4441   457.5    6.205      41.469
2015    5        6    16  50    5.4455   457.6    6.206      41.505
2015    5        6    16  55    5.4470   457.7    6.208      41.543
2015    5        6    17   1    5.4483   457.8    6.209      41.581
2015    5        6    17   6    5.4497   457.8    6.210      41.619
2015    5        6    17  12    5.4511   457.9    6.212      41.657
2015    5        6    17  18    5.4525   458.0    6.213      41.696
2015    5        6    17  23    5.4538   458.1    6.214      41.734
2015    5        6    17  29    5.4551   458.2    6.215      41.772
2015    5        6    17  34    5.4564   458.3    6.216      41.811
2015    5        6    17  40    5.4577   458.5    6.217      41.849
2015    5        6    17  46    5.4590   458.6    6.218      41.889
2015    5        6    17  51    5.4602   458.7    6.218      41.928
2015    5        6    17  57    5.4614   458.8    6.219      41.967
2015    5        6    18   2    5.4625   458.9    6.219      42.007
2015    5        6    18   8    5.4636   459.0    6.219      42.045
2015    5        6    18  13    5.4647   459.1    6.218      42.083
2015    5        6    18  19    5.4658   459.2    6.218      42.120
2015    5        6    18  25    5.4668   459.4    6.217      42.156
2015    5        6    18  30    5.4678   459.5    6.216      42.191
2015    5        6    18  36    5.4687   459.6    6.215      42.225
2015    5        6    18  41    5.4696   459.7    6.213      42.259
2015    5        6    18  47    5.4705   459.8    6.211      42.291
2015    5        6    18  53    5.4713   460.0    6.210      42.323
2015    5        6    18  58    5.4721   460.1    6.208      42.354
2015    5        6    19   4    5.4729   460.2    6.205      42.384
2015    5        6    19   9    5.4736   460.3    6.203      42.413
2015    5        6    19  15    5.4744   460.4    6.201      42.442
2015    5        6    19  20    5.4751   460.5    6.198      42.470
2015    5        6    19  26    5.4758   460.7    6.195      42.497
2015    5        6    19  32    5.4764   460.8    6.193      42.524
2015    5        6    19  37    5.4771   460.9    6.190      42.550
2015    5        6    19  43    5.4777   461.0    6.187      42.576
2015    5        6    19  48    5.4783   461.1    6.183      42.601
2015    5        6    19  54    5.4789   461.3    6.180      42.626
2015    5        6    20   0    5.4794   461.4    6.177      42.650
2015    5        6    20   5    5.4800   461.5    6.174      42.673
2015    5        6    20  11    5.4805   461.6    6.170      42.697
2015    5        6    20  16    5.4810   461.8    6.167      42.720
2015    5        6    20  22    5.4815   461.9    6.163      42.742
2015    5        6    20  27    5.4820   462.0    6.160      42.764
2015    5        6    20  33    5.4824   462.1    6.156      42.786
2015    5        6    20  39    5.4828   462.2    6.152      42.807
2015    5        6    20  44    5.4832   462.4    6.149      42.828
2015    5        6    20  50    5.4836   462.5    6.145      42.849
2015    5        6    20  55    5.4840   462.6    6.141      42.869
2015    5        6    21   1    5.4844   462.7    6.138      42.889
2015    5        6    21   6    5.4847   462.9    6.134      42.908
2015    5        6    21  12    5.4850   463.0    6.130      42.927
2015    5        6    21  18    5.4853   463.1    6.126      42.947
2015    5        6    21  23    5.4856   463.2    6.123      42.965
2015    5        6    21  29    5.4859   463.3    6.119      42.984
2015    5        6    21  34    5.4862   463.5    6.115      43.002
2015    5        6    21  40    5.4864   463.6    6.111      43.020
2015    5        6    21  46    5.4867   463.7    6.108      43.038
2015    5        6    21  51    5.4869   463.8    6.104      43.056
2015    5        6    21  57    5.4871   463.9    6.101      43.074
2015    5        6    22   2    5.4873   464.1    6.097      43.092
2015    5        6    22   8    5.4874   464.2    6.094      43.109
2015    5        6    22  13    5.4876   464.3    6.090      43.127
2015    5        6    22  19    5.4878   464.4    6.087      43.145
2015    5        6    22  25    5.4879   464.6    6.084      43.162
2015    5        6    22  30    5.4880   464.7    6.081      43.180
2015    5        6    22  36    5.4882   464.8    6.078      43.198
2015    5        6    22  41    5.4883   464.9    6.074      43.217
2015    5        6    22  47    5.4884   465.1    6.072      43.236
2015    5        6    22  53    5.4885   465.2    6.069      43.255
2015    5        6    22  58    5.4885   465.3    6.066      43.275
2015    5        6    23   4    5.4886   465.4    6.063      43.296
2015    5        6    23   9    5.4886   465.5    6.060      43.317
2015    5        6    23  15    5.4887   465.7    6.058      43.338
2015    5        6    23  20    5.4886   465.8    6.055      43.358
2015    5        6    23  26    5.4886   465.9    6.052      43.379
2015    5        6    23  32    5.4886   466.0    6.050      43.400
2015    5        6    23  37    5.4885   466.1    6.047      43.420
2015    5        6    23  43    5.4884   466.3    6.045      43.441
2015    5        6    23  48    5.4883   466.4    6.043      43.461
2015    5        6    23  54    5.4881   466.5    6.040      43.481
2015    5        6    23  59    5.4879   466.6    6.038      43.500
2015    5        7     0   5    5.4878   466.8    6.035      43.519
2015    5        7     0  11    5.4875   466.9    6.033      43.538
2015    5        7     0  16    5.4873   467.0    6.031      43.557
2015    5        7     0  22    5.4870   467.1    6.028      43.576
2015    5        7     0  27    5.4867   467.3    6.026      43.594
2015    5        7     0  33    5.4865   467.4    6.024      43.612
2015    5        7     0  39    5.4861   467.5    6.022      43.630
2015    5        7     0  44    5.4858   467.6    6.020      43.648
2015    5        7     0  50    5.4855   467.8    6.018      43.668
2015    5        7     0  55    5.4851   467.9    6.016      43.688
2015    5        7     1   1    5.4847   468.0    6.013      43.708
2015    5        7     1   6    5.4843   468.2    6.011      43.729
2015    5        7     1  12    5.4838   468.3    6.009      43.751
2015    5        7     1  18    5.4833   468.4    6.006      43.774
2015    5        7     1  23    5.4827   468.6    6.003      43.796
2015    5        7     1  29    5.4821   468.7    6.001      43.818
2015    5        7     1  34    5.4815   468.8    5.998      43.840
2015    5        7     1  40    5.4808   469.0    5.995      43.861
2015    5        7     1  46    5.4801   469.1    5.991      43.882
2015    5        7     1  51    5.4793   469.2    5.988      43.902
2015    5        7     1  57    5.4785   469.4    5.984      43.922
2015    5        7     2   2    5.4777   469.5    5.981      43.943
2015    5        7     2   8    5.4768   469.6    5.977      43.962
2015    5        7     2  13    5.4759   469.8    5.973      43.981
2015    5        7     2  19    5.4749   469.9    5.969      44.000
2015    5        7     2  25    5.4739   470.1    5.965      44.019
2015    5        7     2  30    5.4729   470.2    5.960      44.037
2015    5        7     2  36    5.4718   470.3    5.956      44.055
2015    5        7     2  41    5.4707   470.5    5.952      44.072
2015    5        7     2  47    5.4696   470.6    5.947      44.090
2015    5        7     2  53    5.4684   470.7    5.942      44.107
2015    5        7     2  58    5.4673   470.9    5.938      44.123
2015    5        7     3   4    5.4660   471.0    5.933      44.140
2015    5        7     3   9    5.4648   471.1    5.928      44.156
