year    month   day   hour  minute  B_enl V_enl   n_enl       T_enl
[year] [month] [day] [hour][minute] [nT]  [km/s]  [cm-3]      [kK]
2015    5        1     0   1    5.0707   484.2    5.699      46.024
2015    5        1     0   7    5.0687   484.3    5.695      46.027
2015    5        1     0  13    5.0667   484.4    5.690      46.030
2015    5        1     0  19    5.0647   484.5    5.686      46.033
2015    5        1     0  25    5.0626   484.6    5.681      46.035
2015    5        1     0  31    5.0605   484.7    5.677      46.037
2015    5        1     0  37    5.0585   484.8    5.672      46.039
2015    5        1     0  43    5.0564   484.9    5.668      46.041
2015    5        1     0  49    5.0543   485.0    5.663      46.042
2015    5        1     0  55    5.0521   485.1    5.659      46.043
2015    5        1     1   1    5.0500   485.2    5.654      46.044
2015    5        1     1   7    5.0479   485.3    5.650      46.045
2015    5        1     1  12    5.0457   485.4    5.645      46.045
2015    5        1     1  18    5.0435   485.5    5.641      46.046
2015    5        1     1  24    5.0413   485.6    5.636      46.046
2015    5        1     1  30    5.0392   485.7    5.631      46.046
2015    5        1     1  36    5.0370   485.8    5.627      46.046
2015    5        1     1  42    5.0347   485.9    5.622      46.045
2015    5        1     1  48    5.0325   486.0    5.618      46.045
2015    5        1     1  54    5.0303   486.1    5.613      46.044
2015    5        1     2   0    5.0280   486.2    5.608      46.044
2015    5        1     2   6    5.0258   486.3    5.604      46.043
2015    5        1     2  12    5.0235   486.4    5.599      46.042
2015    5        1     2  18    5.0213   486.5    5.595      46.041
2015    5        1     2  23    5.0190   486.6    5.590      46.040
2015    5        1     2  29    5.0167   486.7    5.586      46.039
2015    5        1     2  35    5.0144   486.8    5.581      46.038
2015    5        1     2  41    5.0121   486.9    5.577      46.037
2015    5        1     2  47    5.0098   487.0    5.572      46.036
2015    5        1     2  53    5.0075   487.0    5.568      46.035
2015    5        1     2  59    5.0052   487.1    5.563      46.034
2015    5        1     3   5    5.0029   487.2    5.559      46.033
2015    5        1     3  11    5.0006   487.3    5.555      46.032
2015    5        1     3  17    4.9984   487.4    5.550      46.032
2015    5        1     3  23    4.9961   487.5    5.546      46.031
2015    5        1     3  29    4.9938   487.6    5.542      46.031
2015    5        1     3  35    4.9915   487.7    5.538      46.030
2015    5        1     3  40    4.9892   487.8    5.533      46.030
2015    5        1     3  46    4.9869   487.9    5.529      46.030
2015    5        1     3  52    4.9846   487.9    5.525      46.030
2015    5        1     3  58    4.9823   488.0    5.521      46.031
2015    5        1     4   4    4.9801   488.1    5.517      46.031
2015    5        1     4  10    4.9778   488.2    5.513      46.031
2015    5        1     4  16    4.9755   488.3    5.509      46.032
2015    5        1     4  22    4.9732   488.4    5.505      46.033
2015    5        1     4  28    4.9710   488.4    5.501      46.034
2015    5        1     4  34    4.9687   488.5    5.497      46.035
2015    5        1     4  40    4.9664   488.6    5.493      46.036
2015    5        1     4  46    4.9642   488.7    5.489      46.037
2015    5        1     4  51    4.9619   488.8    5.485      46.038
2015    5        1     4  57    4.9597   488.9    5.481      46.040
2015    5        1     5   3    4.9574   488.9    5.477      46.041
2015    5        1     5   9    4.9552   489.0    5.473      46.042
2015    5        1     5  15    4.9529   489.1    5.469      46.044
2015    5        1     5  21    4.9507   489.2    5.465      46.045
2015    5        1     5  27    4.9484   489.3    5.461      46.046
2015    5        1     5  33    4.9461   489.3    5.457      46.046
2015    5        1     5  39    4.9438   489.4    5.453      46.047
2015    5        1     5  45    4.9416   489.5    5.449      46.047
2015    5        1     5  51    4.9393   489.6    5.445      46.047
2015    5        1     5  57    4.9370   489.7    5.441      46.047
2015    5        1     6   3    4.9347   489.7    5.436      46.047
2015    5        1     6   8    4.9323   489.8    5.432      46.046
2015    5        1     6  14    4.9300   489.9    5.428      46.045
2015    5        1     6  20    4.9277   490.0    5.424      46.044
2015    5        1     6  26    4.9253   490.0    5.420      46.042
2015    5        1     6  32    4.9230   490.1    5.416      46.041
2015    5        1     6  38    4.9207   490.2    5.411      46.039
2015    5        1     6  44    4.9183   490.3    5.407      46.036
2015    5        1     6  50    4.9159   490.3    5.403      46.034
2015    5        1     6  56    4.9136   490.4    5.399      46.031
2015    5        1     7   2    4.9112   490.5    5.395      46.028
2015    5        1     7   8    4.9088   490.6    5.390      46.024
2015    5        1     7  14    4.9064   490.6    5.386      46.021
2015    5        1     7  19    4.9040   490.7    5.382      46.017
2015    5        1     7  25    4.9016   490.8    5.378      46.013
2015    5        1     7  31    4.8992   490.8    5.374      46.009
2015    5        1     7  37    4.8968   490.9    5.369      46.004
2015    5        1     7  43    4.8944   491.0    5.365      46.000
2015    5        1     7  49    4.8920   491.0    5.361      45.995
2015    5        1     7  55    4.8895   491.1    5.357      45.990
2015    5        1     8   1    4.8871   491.2    5.353      45.985
2015    5        1     8   7    4.8847   491.2    5.349      45.980
2015    5        1     8  13    4.8823   491.3    5.345      45.975
2015    5        1     8  19    4.8799   491.4    5.341      45.970
2015    5        1     8  25    4.8775   491.4    5.337      45.965
2015    5        1     8  31    4.8750   491.5    5.333      45.959
2015    5        1     8  36    4.8726   491.6    5.329      45.954
2015    5        1     8  42    4.8702   491.6    5.326      45.949
2015    5        1     8  48    4.8678   491.7    5.322      45.943
2015    5        1     8  54    4.8654   491.8    5.318      45.938
2015    5        1     9   0    4.8630   491.8    5.314      45.932
2015    5        1     9   6    4.8606   491.9    5.311      45.927
2015    5        1     9  12    4.8582   491.9    5.307      45.922
2015    5        1     9  18    4.8559   492.0    5.304      45.917
2015    5        1     9  24    4.8535   492.1    5.300      45.912
2015    5        1     9  30    4.8511   492.1    5.297      45.907
2015    5        1     9  36    4.8487   492.2    5.293      45.902
2015    5        1     9  42    4.8464   492.2    5.290      45.897
2015    5        1     9  47    4.8440   492.3    5.286      45.892
2015    5        1     9  53    4.8417   492.4    5.283      45.888
2015    5        1     9  59    4.8393   492.4    5.280      45.883
2015    5        1    10   5    4.8370   492.5    5.276      45.879
2015    5        1    10  11    4.8346   492.5    5.273      45.875
2015    5        1    10  17    4.8323   492.6    5.270      45.872
2015    5        1    10  23    4.8300   492.7    5.266      45.868
2015    5        1    10  29    4.8276   492.7    5.263      45.865
2015    5        1    10  35    4.8252   492.8    5.260      45.862
2015    5        1    10  41    4.8229   492.8    5.256      45.858
2015    5        1    10  47    4.8206   492.9    5.253      45.855
2015    5        1    10  53    4.8182   492.9    5.249      45.851
2015    5        1    10  59    4.8159   493.0    5.246      45.847
2015    5        1    11   4    4.8135   493.0    5.243      45.844
2015    5        1    11  10    4.8112   493.1    5.239      45.840
2015    5        1    11  16    4.8088   493.1    5.236      45.836
2015    5        1    11  22    4.8065   493.2    5.232      45.832
2015    5        1    11  28    4.8042   493.3    5.229      45.828
2015    5        1    11  34    4.8018   493.3    5.225      45.824
2015    5        1    11  40    4.7995   493.4    5.222      45.819
2015    5        1    11  46    4.7972   493.4    5.218      45.815
2015    5        1    11  52    4.7948   493.5    5.215      45.810
2015    5        1    11  58    4.7925   493.5    5.211      45.806
2015    5        1    12   4    4.7901   493.6    5.208      45.801
2015    5        1    12  10    4.7878   493.6    5.204      45.796
2015    5        1    12  15    4.7854   493.7    5.200      45.791
2015    5        1    12  21    4.7831   493.7    5.197      45.786
2015    5        1    12  27    4.7808   493.8    5.193      45.780
2015    5        1    12  33    4.7784   493.8    5.190      45.775
2015    5        1    12  39    4.7761   493.8    5.186      45.769
2015    5        1    12  45    4.7738   493.9    5.182      45.764
2015    5        1    12  51    4.7714   493.9    5.179      45.758
2015    5        1    12  57    4.7691   494.0    5.175      45.752
2015    5        1    13   3    4.7668   494.0    5.172      45.746
2015    5        1    13   9    4.7644   494.1    5.168      45.740
2015    5        1    13  15    4.7621   494.1    5.164      45.733
2015    5        1    13  21    4.7598   494.2    5.161      45.727
2015    5        1    13  27    4.7574   494.2    5.157      45.721
2015    5        1    13  32    4.7551   494.3    5.154      45.714
2015    5        1    13  38    4.7528   494.3    5.150      45.708
2015    5        1    13  44    4.7505   494.3    5.146      45.701
2015    5        1    13  50    4.7481   494.4    5.143      45.694
2015    5        1    13  56    4.7458   494.4    5.139      45.688
2015    5        1    14   2    4.7435   494.5    5.136      45.681
2015    5        1    14   8    4.7412   494.5    5.133      45.674
2015    5        1    14  14    4.7389   494.5    5.129      45.667
2015    5        1    14  20    4.7366   494.6    5.126      45.660
2015    5        1    14  26    4.7343   494.6    5.123      45.653
2015    5        1    14  32    4.7320   494.6    5.119      45.646
2015    5        1    14  38    4.7297   494.7    5.116      45.639
2015    5        1    14  43    4.7275   494.7    5.113      45.632
2015    5        1    14  49    4.7252   494.8    5.110      45.625
2015    5        1    14  55    4.7229   494.8    5.107      45.618
2015    5        1    15   1    4.7207   494.8    5.104      45.611
2015    5        1    15   7    4.7184   494.9    5.101      45.604
2015    5        1    15  13    4.7161   494.9    5.098      45.597
2015    5        1    15  19    4.7139   494.9    5.095      45.590
2015    5        1    15  25    4.7117   495.0    5.092      45.584
2015    5        1    15  31    4.7094   495.0    5.089      45.577
2015    5        1    15  37    4.7072   495.0    5.086      45.570
2015    5        1    15  43    4.7050   495.1    5.083      45.563
2015    5        1    15  49    4.7028   495.1    5.081      45.557
2015    5        1    15  55    4.7006   495.1    5.078      45.550
2015    5        1    16   0    4.6983   495.1    5.075      45.544
2015    5        1    16   6    4.6962   495.2    5.073      45.537
2015    5        1    16  12    4.6940   495.2    5.070      45.531
2015    5        1    16  18    4.6918   495.2    5.068      45.525
2015    5        1    16  24    4.6896   495.3    5.065      45.519
2015    5        1    16  30    4.6874   495.3    5.063      45.512
2015    5        1    16  36    4.6853   495.3    5.060      45.506
2015    5        1    16  42    4.6831   495.4    5.058      45.500
2015    5        1    16  48    4.6809   495.4    5.055      45.494
2015    5        1    16  54    4.6788   495.4    5.053      45.488
2015    5        1    17   0    4.6766   495.4    5.051      45.482
2015    5        1    17   6    4.6744   495.5    5.048      45.476
2015    5        1    17  11    4.6723   495.5    5.046      45.470
2015    5        1    17  17    4.6701   495.5    5.043      45.465
2015    5        1    17  23    4.6679   495.6    5.041      45.459
2015    5        1    17  29    4.6657   495.6    5.038      45.454
2015    5        1    17  35    4.6636   495.6    5.035      45.448
2015    5        1    17  41    4.6614   495.6    5.033      45.443
2015    5        1    17  47    4.6592   495.7    5.030      45.437
2015    5        1    17  53    4.6570   495.7    5.028      45.431
2015    5        1    17  59    4.6548   495.7    5.025      45.424
2015    5        1    18   5    4.6526   495.8    5.022      45.418
2015    5        1    18  11    4.6504   495.8    5.020      45.411
2015    5        1    18  17    4.6482   495.8    5.017      45.404
2015    5        1    18  23    4.6460   495.8    5.014      45.398
2015    5        1    18  28    4.6438   495.9    5.012      45.391
2015    5        1    18  34    4.6417   495.9    5.009      45.383
2015    5        1    18  40    4.6395   495.9    5.006      45.376
2015    5        1    18  46    4.6372   495.9    5.004      45.368
2015    5        1    18  52    4.6350   496.0    5.001      45.361
2015    5        1    18  58    4.6328   496.0    4.998      45.353
2015    5        1    19   4    4.6306   496.0    4.995      45.345
2015    5        1    19  10    4.6284   496.0    4.993      45.337
2015    5        1    19  16    4.6262   496.1    4.990      45.328
2015    5        1    19  22    4.6240   496.1    4.987      45.320
2015    5        1    19  28    4.6218   496.1    4.984      45.312
2015    5        1    19  34    4.6196   496.1    4.981      45.303
2015    5        1    19  39    4.6174   496.1    4.979      45.294
2015    5        1    19  45    4.6152   496.2    4.976      45.286
2015    5        1    19  51    4.6130   496.2    4.973      45.277
2015    5        1    19  57    4.6108   496.2    4.970      45.268
2015    5        1    20   3    4.6086   496.2    4.968      45.259
2015    5        1    20   9    4.6064   496.3    4.965      45.250
2015    5        1    20  15    4.6042   496.3    4.962      45.241
2015    5        1    20  21    4.6020   496.3    4.959      45.232
2015    5        1    20  27    4.5998   496.3    4.957      45.223
2015    5        1    20  33    4.5976   496.3    4.954      45.214
2015    5        1    20  39    4.5954   496.3    4.951      45.205
2015    5        1    20  45    4.5932   496.4    4.948      45.196
2015    5        1    20  51    4.5910   496.4    4.946      45.187
2015    5        1    20  56    4.5889   496.4    4.943      45.178
2015    5        1    21   2    4.5867   496.4    4.940      45.169
2015    5        1    21   8    4.5845   496.4    4.938      45.161
2015    5        1    21  14    4.5824   496.5    4.935      45.152
2015    5        1    21  20    4.5802   496.5    4.933      45.143
2015    5        1    21  26    4.5781   496.5    4.930      45.134
2015    5        1    21  32    4.5759   496.5    4.927      45.125
2015    5        1    21  38    4.5738   496.5    4.925      45.116
2015    5        1    21  44    4.5716   496.5    4.922      45.107
2015    5        1    21  50    4.5695   496.5    4.920      45.098
2015    5        1    21  56    4.5674   496.6    4.917      45.090
2015    5        1    22   2    4.5653   496.6    4.915      45.081
2015    5        1    22   8    4.5632   496.6    4.912      45.072
2015    5        1    22  13    4.5610   496.6    4.910      45.063
2015    5        1    22  19    4.5589   496.6    4.907      45.054
2015    5        1    22  25    4.5568   496.6    4.905      45.045
2015    5        1    22  31    4.5547   496.6    4.903      45.036
2015    5        1    22  37    4.5526   496.6    4.900      45.027
2015    5        1    22  43    4.5505   496.6    4.898      45.018
2015    5        1    22  49    4.5484   496.7    4.895      45.009
2015    5        1    22  55    4.5464   496.7    4.893      44.999
2015    5        1    23   1    4.5443   496.7    4.891      44.990
2015    5        1    23   7    4.5422   496.7    4.888      44.981
2015    5        1    23  13    4.5401   496.7    4.886      44.971
2015    5        1    23  19    4.5381   496.7    4.884      44.962
2015    5        1    23  24    4.5360   496.7    4.881      44.953
2015    5        1    23  30    4.5339   496.7    4.879      44.943
2015    5        1    23  36    4.5319   496.7    4.877      44.934
2015    5        1    23  42    4.5298   496.7    4.874      44.924
2015    5        1    23  48    4.5278   496.7    4.872      44.914
2015    5        1    23  54    4.5257   496.7    4.870      44.904
2015    5        2     0   0    4.5236   496.7    4.868      44.895
2015    5        2     0   6    4.5216   496.7    4.865      44.885
2015    5        2     0  12    4.5195   496.7    4.863      44.874
2015    5        2     0  18    4.5175   496.7    4.861      44.864
2015    5        2     0  24    4.5155   496.7    4.859      44.854
2015    5        2     0  30    4.5134   496.7    4.856      44.844
2015    5        2     0  35    4.5114   496.8    4.854      44.834
2015    5        2     0  41    4.5093   496.8    4.852      44.824
2015    5        2     0  47    4.5073   496.8    4.850      44.813
2015    5        2     0  53    4.5053   496.8    4.847      44.803
2015    5        2     0  59    4.5032   496.8    4.845      44.792
2015    5        2     1   5    4.5012   496.8    4.843      44.781
2015    5        2     1  11    4.4991   496.8    4.841      44.770
2015    5        2     1  17    4.4971   496.8    4.839      44.760
2015    5        2     1  23    4.4951   496.8    4.837      44.749
2015    5        2     1  29    4.4930   496.8    4.834      44.737
2015    5        2     1  35    4.4910   496.8    4.832      44.726
2015    5        2     1  41    4.4889   496.8    4.830      44.715
2015    5        2     1  47    4.4869   496.8    4.828      44.704
2015    5        2     1  52    4.4849   496.8    4.826      44.692
2015    5        2     1  58    4.4828   496.8    4.824      44.681
2015    5        2     2   4    4.4808   496.7    4.821      44.669
2015    5        2     2  10    4.4787   496.7    4.819      44.657
2015    5        2     2  16    4.4767   496.7    4.817      44.645
2015    5        2     2  22    4.4746   496.7    4.815      44.633
2015    5        2     2  28    4.4726   496.7    4.813      44.621
2015    5        2     2  34    4.4705   496.7    4.811      44.609
2015    5        2     2  40    4.4685   496.7    4.809      44.597
2015    5        2     2  46    4.4664   496.7    4.806      44.584
2015    5        2     2  52    4.4644   496.7    4.804      44.572
2015    5        2     2  58    4.4623   496.7    4.802      44.560
2015    5        2     3   4    4.4603   496.7    4.800      44.547
2015    5        2     3   9    4.4583   496.7    4.798      44.534
2015    5        2     3  15    4.4562   496.7    4.796      44.522
2015    5        2     3  21    4.4542   496.7    4.794      44.509
2015    5        2     3  27    4.4522   496.7    4.792      44.496
2015    5        2     3  33    4.4501   496.7    4.789      44.483
2015    5        2     3  39    4.4481   496.7    4.787      44.470
2015    5        2     3  45    4.4461   496.6    4.785      44.457
2015    5        2     3  51    4.4441   496.6    4.783      44.444
2015    5        2     3  57    4.4421   496.6    4.781      44.431
2015    5        2     4   3    4.4401   496.6    4.779      44.418
2015    5        2     4   9    4.4381   496.6    4.777      44.405
2015    5        2     4  15    4.4361   496.6    4.775      44.392
2015    5        2     4  20    4.4341   496.6    4.773      44.379
2015    5        2     4  26    4.4321   496.6    4.771      44.367
2015    5        2     4  32    4.4301   496.6    4.769      44.354
2015    5        2     4  38    4.4282   496.5    4.767      44.341
2015    5        2     4  44    4.4262   496.5    4.765      44.328
