year    month   day   hour  minute  B_enl V_enl   n_enl       T_enl
[year] [month] [day] [hour][minute] [nT]  [km/s]  [cm-3]      [kK]
2015    5        5     0   5    4.2695   427.6    5.871      35.534
2015    5        5     0  10    4.2721   427.5    5.878      35.535
2015    5        5     0  16    4.2748   427.5    5.886      35.536
2015    5        5     0  22    4.2774   427.4    5.893      35.536
2015    5        5     0  28    4.2800   427.3    5.900      35.537
2015    5        5     0  34    4.2827   427.3    5.908      35.537
2015    5        5     0  40    4.2853   427.2    5.915      35.538
2015    5        5     0  45    4.2878   427.2    5.922      35.538
2015    5        5     0  51    4.2904   427.1    5.929      35.538
2015    5        5     0  57    4.2930   427.0    5.936      35.538
2015    5        5     1   3    4.2956   427.0    5.943      35.537
2015    5        5     1   9    4.2982   426.9    5.950      35.537
2015    5        5     1  14    4.3007   426.8    5.957      35.536
2015    5        5     1  20    4.3033   426.8    5.964      35.535
2015    5        5     1  26    4.3059   426.7    5.970      35.534
2015    5        5     1  32    4.3084   426.7    5.977      35.533
2015    5        5     1  38    4.3109   426.6    5.983      35.532
2015    5        5     1  44    4.3134   426.5    5.990      35.531
2015    5        5     1  49    4.3159   426.5    5.996      35.530
2015    5        5     1  55    4.3185   426.4    6.003      35.528
2015    5        5     2   1    4.3210   426.4    6.009      35.527
2015    5        5     2   7    4.3234   426.3    6.015      35.525
2015    5        5     2  13    4.3259   426.3    6.022      35.524
2015    5        5     2  18    4.3284   426.2    6.028      35.522
2015    5        5     2  24    4.3309   426.2    6.034      35.521
2015    5        5     2  30    4.3333   426.1    6.040      35.519
2015    5        5     2  36    4.3358   426.1    6.046      35.518
2015    5        5     2  42    4.3383   426.0    6.052      35.516
2015    5        5     2  48    4.3407   426.0    6.058      35.514
2015    5        5     2  53    4.3432   425.9    6.064      35.513
2015    5        5     2  59    4.3456   425.8    6.070      35.512
2015    5        5     3   5    4.3480   425.8    6.076      35.510
2015    5        5     3  11    4.3505   425.7    6.082      35.509
2015    5        5     3  17    4.3529   425.7    6.088      35.508
2015    5        5     3  22    4.3554   425.6    6.094      35.507
2015    5        5     3  28    4.3578   425.6    6.100      35.506
2015    5        5     3  34    4.3603   425.6    6.106      35.505
2015    5        5     3  40    4.3627   425.5    6.112      35.505
2015    5        5     3  46    4.3652   425.5    6.118      35.504
2015    5        5     3  52    4.3677   425.4    6.123      35.504
2015    5        5     3  57    4.3701   425.4    6.129      35.503
2015    5        5     4   3    4.3726   425.3    6.135      35.503
2015    5        5     4   9    4.3751   425.3    6.141      35.503
2015    5        5     4  15    4.3776   425.2    6.147      35.504
2015    5        5     4  21    4.3800   425.2    6.153      35.504
2015    5        5     4  27    4.3826   425.1    6.159      35.505
2015    5        5     4  32    4.3851   425.1    6.165      35.505
2015    5        5     4  38    4.3876   425.0    6.171      35.506
2015    5        5     4  44    4.3901   425.0    6.177      35.508
2015    5        5     4  50    4.3927   425.0    6.184      35.509
2015    5        5     4  56    4.3952   424.9    6.190      35.511
2015    5        5     5   1    4.3978   424.9    6.196      35.513
2015    5        5     5   7    4.4004   424.8    6.202      35.515
2015    5        5     5  13    4.4030   424.8    6.209      35.518
2015    5        5     5  19    4.4056   424.7    6.215      35.521
2015    5        5     5  25    4.4083   424.7    6.221      35.524
2015    5        5     5  31    4.4110   424.7    6.228      35.528
2015    5        5     5  36    4.4136   424.6    6.235      35.531
2015    5        5     5  42    4.4164   424.6    6.241      35.536
2015    5        5     5  48    4.4191   424.5    6.248      35.540
2015    5        5     5  54    4.4218   424.5    6.255      35.545
2015    5        5     6   0    4.4246   424.5    6.261      35.551
2015    5        5     6   5    4.4274   424.4    6.268      35.556
2015    5        5     6  11    4.4302   424.4    6.275      35.562
2015    5        5     6  17    4.4331   424.4    6.282      35.569
2015    5        5     6  23    4.4359   424.3    6.289      35.575
2015    5        5     6  29    4.4388   424.3    6.296      35.581
2015    5        5     6  35    4.4417   424.3    6.303      35.588
2015    5        5     6  40    4.4446   424.2    6.310      35.595
2015    5        5     6  46    4.4475   424.2    6.317      35.602
2015    5        5     6  52    4.4504   424.2    6.324      35.609
2015    5        5     6  58    4.4534   424.2    6.331      35.616
2015    5        5     7   4    4.4563   424.1    6.339      35.624
2015    5        5     7   9    4.4593   424.1    6.346      35.631
2015    5        5     7  15    4.4623   424.1    6.353      35.639
2015    5        5     7  21    4.4654   424.0    6.361      35.648
2015    5        5     7  27    4.4684   424.0    6.369      35.656
2015    5        5     7  33    4.4715   424.0    6.376      35.664
2015    5        5     7  39    4.4745   424.0    6.384      35.673
2015    5        5     7  44    4.4776   423.9    6.392      35.682
2015    5        5     7  50    4.4806   423.9    6.400      35.693
2015    5        5     7  56    4.4836   423.9    6.408      35.703
2015    5        5     8   2    4.4866   423.9    6.416      35.714
2015    5        5     8   8    4.4896   423.9    6.424      35.726
2015    5        5     8  14    4.4925   423.9    6.432      35.737
2015    5        5     8  19    4.4954   423.9    6.439      35.749
2015    5        5     8  25    4.4983   423.9    6.447      35.761
2015    5        5     8  31    4.5012   423.8    6.454      35.772
2015    5        5     8  37    4.5040   423.8    6.461      35.783
2015    5        5     8  43    4.5068   423.8    6.468      35.793
2015    5        5     8  48    4.5096   423.8    6.475      35.803
2015    5        5     8  54    4.5123   423.8    6.482      35.813
2015    5        5     9   0    4.5150   423.8    6.489      35.823
2015    5        5     9   6    4.5177   423.8    6.495      35.832
2015    5        5     9  12    4.5203   423.8    6.502      35.841
2015    5        5     9  18    4.5229   423.8    6.508      35.850
2015    5        5     9  23    4.5255   423.8    6.514      35.858
2015    5        5     9  29    4.5281   423.8    6.521      35.866
2015    5        5     9  35    4.5306   423.8    6.526      35.874
2015    5        5     9  41    4.5332   423.8    6.532      35.882
2015    5        5     9  47    4.5357   423.8    6.538      35.889
2015    5        5     9  52    4.5382   423.8    6.544      35.896
2015    5        5     9  58    4.5407   423.8    6.549      35.902
2015    5        5    10   4    4.5431   423.8    6.555      35.909
2015    5        5    10  10    4.5456   423.7    6.560      35.915
2015    5        5    10  16    4.5480   423.7    6.566      35.921
2015    5        5    10  22    4.5505   423.7    6.571      35.927
2015    5        5    10  27    4.5529   423.7    6.576      35.933
2015    5        5    10  33    4.5553   423.7    6.581      35.939
2015    5        5    10  39    4.5578   423.7    6.586      35.944
2015    5        5    10  45    4.5602   423.7    6.591      35.949
2015    5        5    10  51    4.5626   423.7    6.596      35.955
2015    5        5    10  56    4.5650   423.7    6.601      35.959
2015    5        5    11   2    4.5674   423.7    6.606      35.964
2015    5        5    11   8    4.5699   423.7    6.611      35.969
2015    5        5    11  14    4.5723   423.7    6.616      35.974
2015    5        5    11  20    4.5747   423.7    6.621      35.978
2015    5        5    11  26    4.5772   423.7    6.625      35.982
2015    5        5    11  31    4.5796   423.7    6.630      35.987
2015    5        5    11  37    4.5821   423.7    6.635      35.991
2015    5        5    11  43    4.5845   423.7    6.640      35.996
2015    5        5    11  49    4.5869   423.7    6.644      36.001
2015    5        5    11  55    4.5894   423.7    6.649      36.006
2015    5        5    12   1    4.5918   423.7    6.654      36.011
2015    5        5    12   6    4.5942   423.7    6.658      36.017
2015    5        5    12  12    4.5966   423.7    6.662      36.022
2015    5        5    12  18    4.5991   423.7    6.667      36.028
2015    5        5    12  24    4.6015   423.7    6.671      36.035
2015    5        5    12  30    4.6039   423.7    6.675      36.041
2015    5        5    12  35    4.6063   423.7    6.680      36.047
2015    5        5    12  41    4.6087   423.7    6.684      36.054
2015    5        5    12  47    4.6112   423.7    6.688      36.060
2015    5        5    12  53    4.6136   423.7    6.692      36.067
2015    5        5    12  59    4.6160   423.7    6.696      36.074
2015    5        5    13   5    4.6184   423.7    6.700      36.080
2015    5        5    13  10    4.6209   423.7    6.704      36.087
2015    5        5    13  16    4.6233   423.7    6.708      36.094
2015    5        5    13  22    4.6258   423.7    6.712      36.101
2015    5        5    13  28    4.6282   423.7    6.716      36.108
2015    5        5    13  34    4.6307   423.7    6.720      36.115
2015    5        5    13  39    4.6332   423.8    6.724      36.123
2015    5        5    13  45    4.6357   423.8    6.728      36.130
2015    5        5    13  51    4.6382   423.8    6.732      36.138
2015    5        5    13  57    4.6407   423.8    6.736      36.146
2015    5        5    14   3    4.6433   423.8    6.741      36.154
2015    5        5    14   9    4.6458   423.8    6.745      36.162
2015    5        5    14  14    4.6484   423.8    6.749      36.171
2015    5        5    14  20    4.6510   423.8    6.754      36.179
2015    5        5    14  26    4.6536   423.8    6.758      36.189
2015    5        5    14  32    4.6562   423.8    6.763      36.198
2015    5        5    14  38    4.6589   423.8    6.767      36.208
2015    5        5    14  43    4.6615   423.8    6.772      36.218
2015    5        5    14  49    4.6642   423.8    6.777      36.228
2015    5        5    14  55    4.6669   423.9    6.782      36.239
2015    5        5    15   1    4.6696   423.9    6.788      36.251
2015    5        5    15   7    4.6723   423.9    6.793      36.263
2015    5        5    15  13    4.6750   423.9    6.799      36.276
2015    5        5    15  18    4.6777   423.9    6.804      36.290
2015    5        5    15  24    4.6803   423.9    6.810      36.304
2015    5        5    15  30    4.6830   424.0    6.815      36.319
2015    5        5    15  36    4.6857   424.0    6.821      36.334
2015    5        5    15  42    4.6883   424.0    6.826      36.349
2015    5        5    15  48    4.6909   424.0    6.831      36.364
2015    5        5    15  53    4.6935   424.0    6.837      36.380
2015    5        5    15  59    4.6961   424.1    6.842      36.395
2015    5        5    16   5    4.6987   424.1    6.848      36.410
2015    5        5    16  11    4.7012   424.1    6.853      36.425
2015    5        5    16  17    4.7036   424.1    6.859      36.440
2015    5        5    16  22    4.7061   424.2    6.864      36.456
2015    5        5    16  28    4.7085   424.2    6.869      36.472
2015    5        5    16  34    4.7109   424.2    6.874      36.488
2015    5        5    16  40    4.7133   424.2    6.880      36.504
2015    5        5    16  46    4.7157   424.3    6.885      36.521
2015    5        5    16  52    4.7180   424.3    6.889      36.537
2015    5        5    16  57    4.7203   424.3    6.894      36.553
2015    5        5    17   3    4.7226   424.4    6.899      36.569
2015    5        5    17   9    4.7249   424.4    6.904      36.585
2015    5        5    17  15    4.7272   424.4    6.908      36.600
2015    5        5    17  21    4.7295   424.4    6.913      36.615
2015    5        5    17  26    4.7317   424.5    6.917      36.629
2015    5        5    17  32    4.7340   424.5    6.921      36.644
2015    5        5    17  38    4.7362   424.5    6.926      36.658
2015    5        5    17  44    4.7385   424.5    6.930      36.672
2015    5        5    17  50    4.7407   424.6    6.934      36.685
2015    5        5    17  56    4.7430   424.6    6.938      36.699
2015    5        5    18   1    4.7453   424.6    6.942      36.712
2015    5        5    18   7    4.7476   424.7    6.946      36.725
2015    5        5    18  13    4.7499   424.7    6.951      36.737
2015    5        5    18  19    4.7522   424.7    6.955      36.750
2015    5        5    18  25    4.7545   424.7    6.959      36.763
2015    5        5    18  30    4.7568   424.8    6.963      36.777
2015    5        5    18  36    4.7591   424.8    6.967      36.790
2015    5        5    18  42    4.7613   424.8    6.971      36.804
2015    5        5    18  48    4.7636   424.9    6.975      36.818
2015    5        5    18  54    4.7659   424.9    6.979      36.832
2015    5        5    19   0    4.7681   425.0    6.983      36.846
2015    5        5    19   5    4.7703   425.0    6.986      36.861
2015    5        5    19  11    4.7725   425.0    6.990      36.875
2015    5        5    19  17    4.7747   425.1    6.993      36.889
2015    5        5    19  23    4.7768   425.1    6.996      36.903
2015    5        5    19  29    4.7789   425.2    6.999      36.917
2015    5        5    19  34    4.7810   425.2    7.002      36.931
2015    5        5    19  40    4.7831   425.2    7.005      36.944
2015    5        5    19  46    4.7852   425.3    7.007      36.958
2015    5        5    19  52    4.7872   425.3    7.009      36.971
2015    5        5    19  58    4.7892   425.4    7.012      36.984
2015    5        5    20   4    4.7912   425.4    7.014      36.996
2015    5        5    20   9    4.7932   425.5    7.016      37.008
2015    5        5    20  15    4.7951   425.5    7.017      37.020
2015    5        5    20  21    4.7971   425.5    7.019      37.032
2015    5        5    20  27    4.7991   425.6    7.021      37.044
2015    5        5    20  33    4.8010   425.6    7.022      37.055
2015    5        5    20  39    4.8029   425.7    7.024      37.066
2015    5        5    20  44    4.8048   425.7    7.025      37.076
2015    5        5    20  50    4.8068   425.8    7.027      37.087
2015    5        5    20  56    4.8087   425.8    7.028      37.097
2015    5        5    21   2    4.8106   425.8    7.029      37.107
2015    5        5    21   8    4.8125   425.9    7.030      37.117
2015    5        5    21  13    4.8144   425.9    7.031      37.127
2015    5        5    21  19    4.8163   426.0    7.032      37.136
2015    5        5    21  25    4.8182   426.0    7.033      37.146
2015    5        5    21  31    4.8201   426.0    7.034      37.155
2015    5        5    21  37    4.8220   426.1    7.035      37.165
2015    5        5    21  43    4.8239   426.1    7.036      37.174
2015    5        5    21  48    4.8258   426.2    7.037      37.183
2015    5        5    21  54    4.8277   426.2    7.038      37.192
2015    5        5    22   0    4.8296   426.3    7.039      37.201
2015    5        5    22   6    4.8316   426.3    7.040      37.211
2015    5        5    22  12    4.8335   426.3    7.041      37.220
2015    5        5    22  17    4.8354   426.4    7.042      37.229
2015    5        5    22  23    4.8374   426.4    7.043      37.238
2015    5        5    22  29    4.8393   426.5    7.044      37.247
2015    5        5    22  35    4.8413   426.5    7.045      37.257
2015    5        5    22  41    4.8433   426.5    7.046      37.266
2015    5        5    22  47    4.8453   426.6    7.048      37.276
2015    5        5    22  52    4.8473   426.6    7.049      37.286
2015    5        5    22  58    4.8494   426.7    7.050      37.297
2015    5        5    23   4    4.8514   426.7    7.052      37.307
2015    5        5    23  10    4.8534   426.8    7.053      37.318
2015    5        5    23  16    4.8555   426.8    7.055      37.329
2015    5        5    23  21    4.8575   426.8    7.057      37.341
2015    5        5    23  27    4.8596   426.9    7.059      37.353
2015    5        5    23  33    4.8616   426.9    7.060      37.365
2015    5        5    23  39    4.8636   427.0    7.062      37.378
2015    5        5    23  45    4.8656   427.0    7.065      37.392
2015    5        5    23  51    4.8676   427.1    7.067      37.406
2015    5        5    23  56    4.8696   427.1    7.069      37.421
2015    5        6     0   2    4.8716   427.2    7.071      37.436
2015    5        6     0   8    4.8736   427.2    7.073      37.452
2015    5        6     0  14    4.8755   427.3    7.075      37.469
2015    5        6     0  20    4.8774   427.4    7.078      37.485
2015    5        6     0  26    4.8793   427.4    7.080      37.502
2015    5        6     0  31    4.8812   427.5    7.082      37.519
2015    5        6     0  37    4.8831   427.5    7.084      37.536
2015    5        6     0  43    4.8850   427.6    7.086      37.553
2015    5        6     0  49    4.8869   427.6    7.088      37.570
2015    5        6     0  55    4.8887   427.7    7.090      37.588
2015    5        6     1   0    4.8906   427.7    7.092      37.605
2015    5        6     1   6    4.8924   427.8    7.095      37.623
2015    5        6     1  12    4.8943   427.8    7.097      37.641
2015    5        6     1  18    4.8961   427.9    7.099      37.658
2015    5        6     1  24    4.8980   427.9    7.101      37.676
2015    5        6     1  30    4.8999   428.0    7.103      37.694
2015    5        6     1  35    4.9017   428.0    7.106      37.712
2015    5        6     1  41    4.9036   428.1    7.108      37.731
2015    5        6     1  47    4.9055   428.2    7.111      37.750
2015    5        6     1  53    4.9074   428.2    7.113      37.769
2015    5        6     1  59    4.9092   428.3    7.115      37.789
2015    5        6     2   4    4.9111   428.3    7.118      37.809
2015    5        6     2  10    4.9129   428.4    7.120      37.830
2015    5        6     2  16    4.9147   428.4    7.122      37.851
2015    5        6     2  22    4.9165   428.5    7.125      37.872
2015    5        6     2  28    4.9183   428.6    7.127      37.892
2015    5        6     2  34    4.9201   428.6    7.129      37.913
2015    5        6     2  39    4.9218   428.7    7.131      37.933
2015    5        6     2  45    4.9235   428.8    7.133      37.953
2015    5        6     2  51    4.9253   428.8    7.134      37.972
2015    5        6     2  57    4.9269   428.9    7.136      37.992
2015    5        6     3   3    4.9286   428.9    7.137      38.011
2015    5        6     3   8    4.9302   429.0    7.139      38.029
2015    5        6     3  14    4.9318   429.1    7.140      38.047
2015    5        6     3  20    4.9334   429.1    7.141      38.064
2015    5        6     3  26    4.9350   429.2    7.142      38.081
2015    5        6     3  32    4.9366   429.3    7.143      38.097
2015    5        6     3  38    4.9382   429.3    7.144      38.113
2015    5        6     3  43    4.9397   429.4    7.145      38.129
2015    5        6     3  49    4.9413   429.5    7.145      38.144
2015    5        6     3  55    4.9428   429.5    7.146      38.159
2015    5        6     4   1    4.9444   429.6    7.147      38.174
2015    5        6     4   7    4.9459   429.6    7.147      38.188
2015    5        6     4  12    4.9474   429.7    7.147      38.202
2015    5        6     4  18    4.9490   429.8    7.148      38.216
