year    month   day   hour  minute  B_enl V_enl   n_enl       T_enl
[year] [month] [day] [hour][minute] [nT]  [km/s]  [cm-3]      [kK]
2015    5        2     0   2    5.0794   519.4    4.693      50.699
2015    5        2     0   8    5.0774   519.4    4.692      50.692
2015    5        2     0  14    5.0755   519.4    4.690      50.685
2015    5        2     0  19    5.0736   519.4    4.689      50.679
2015    5        2     0  25    5.0717   519.5    4.687      50.672
2015    5        2     0  31    5.0697   519.5    4.685      50.666
2015    5        2     0  36    5.0678   519.5    4.684      50.660
2015    5        2     0  42    5.0659   519.5    4.683      50.654
2015    5        2     0  48    5.0640   519.5    4.681      50.649
2015    5        2     0  53    5.0620   519.6    4.680      50.643
2015    5        2     0  59    5.0601   519.6    4.678      50.638
2015    5        2     1   5    5.0582   519.6    4.677      50.633
2015    5        2     1  11    5.0563   519.6    4.675      50.629
2015    5        2     1  16    5.0544   519.6    4.674      50.625
2015    5        2     1  22    5.0525   519.6    4.672      50.620
2015    5        2     1  28    5.0506   519.7    4.671      50.617
2015    5        2     1  33    5.0487   519.7    4.670      50.613
2015    5        2     1  39    5.0468   519.7    4.668      50.609
2015    5        2     1  45    5.0450   519.7    4.667      50.606
2015    5        2     1  50    5.0431   519.7    4.665      50.603
2015    5        2     1  56    5.0413   519.7    4.664      50.600
2015    5        2     2   2    5.0394   519.8    4.662      50.597
2015    5        2     2   7    5.0376   519.8    4.661      50.594
2015    5        2     2  13    5.0358   519.8    4.659      50.591
2015    5        2     2  19    5.0340   519.8    4.658      50.588
2015    5        2     2  25    5.0322   519.8    4.656      50.584
2015    5        2     2  30    5.0304   519.8    4.655      50.581
2015    5        2     2  36    5.0286   519.9    4.653      50.577
2015    5        2     2  42    5.0269   519.9    4.652      50.573
2015    5        2     2  47    5.0251   519.9    4.650      50.569
2015    5        2     2  53    5.0234   519.9    4.648      50.565
2015    5        2     2  59    5.0216   519.9    4.647      50.560
2015    5        2     3   4    5.0199   519.9    4.645      50.556
2015    5        2     3  10    5.0181   519.9    4.643      50.551
2015    5        2     3  16    5.0164   520.0    4.642      50.546
2015    5        2     3  21    5.0147   520.0    4.640      50.541
2015    5        2     3  27    5.0130   520.0    4.638      50.536
2015    5        2     3  33    5.0112   520.0    4.636      50.531
2015    5        2     3  39    5.0095   520.0    4.634      50.525
2015    5        2     3  44    5.0078   520.0    4.632      50.519
2015    5        2     3  50    5.0061   520.0    4.630      50.513
2015    5        2     3  56    5.0043   520.1    4.628      50.506
2015    5        2     4   1    5.0026   520.1    4.627      50.499
2015    5        2     4   7    5.0009   520.1    4.625      50.491
2015    5        2     4  13    4.9992   520.1    4.623      50.484
2015    5        2     4  18    4.9974   520.1    4.621      50.476
2015    5        2     4  24    4.9957   520.1    4.619      50.467
2015    5        2     4  30    4.9939   520.1    4.617      50.459
2015    5        2     4  35    4.9922   520.1    4.615      50.450
2015    5        2     4  41    4.9904   520.1    4.613      50.441
2015    5        2     4  47    4.9887   520.2    4.611      50.431
2015    5        2     4  53    4.9869   520.2    4.609      50.421
2015    5        2     4  58    4.9851   520.2    4.607      50.411
2015    5        2     5   4    4.9834   520.2    4.605      50.401
2015    5        2     5  10    4.9816   520.2    4.603      50.391
2015    5        2     5  15    4.9798   520.2    4.601      50.380
2015    5        2     5  21    4.9780   520.2    4.599      50.370
2015    5        2     5  27    4.9762   520.2    4.597      50.359
2015    5        2     5  32    4.9744   520.2    4.595      50.348
2015    5        2     5  38    4.9726   520.2    4.593      50.337
2015    5        2     5  44    4.9708   520.3    4.591      50.327
2015    5        2     5  49    4.9690   520.3    4.589      50.315
2015    5        2     5  55    4.9672   520.3    4.588      50.304
2015    5        2     6   1    4.9654   520.3    4.586      50.293
2015    5        2     6   7    4.9636   520.3    4.584      50.282
2015    5        2     6  12    4.9618   520.3    4.582      50.271
2015    5        2     6  18    4.9600   520.3    4.581      50.260
2015    5        2     6  24    4.9581   520.3    4.579      50.249
2015    5        2     6  29    4.9563   520.3    4.577      50.239
2015    5        2     6  35    4.9545   520.3    4.576      50.228
2015    5        2     6  41    4.9527   520.3    4.574      50.218
2015    5        2     6  46    4.9508   520.3    4.573      50.207
2015    5        2     6  52    4.9490   520.3    4.571      50.197
2015    5        2     6  58    4.9472   520.3    4.570      50.187
2015    5        2     7   3    4.9454   520.3    4.568      50.177
2015    5        2     7   9    4.9435   520.3    4.567      50.167
2015    5        2     7  15    4.9417   520.3    4.566      50.157
2015    5        2     7  21    4.9399   520.4    4.564      50.148
2015    5        2     7  26    4.9381   520.4    4.563      50.139
2015    5        2     7  32    4.9362   520.4    4.562      50.130
2015    5        2     7  38    4.9344   520.4    4.560      50.121
2015    5        2     7  43    4.9326   520.4    4.559      50.113
2015    5        2     7  49    4.9308   520.4    4.558      50.104
2015    5        2     7  55    4.9290   520.4    4.557      50.096
2015    5        2     8   0    4.9272   520.4    4.555      50.088
2015    5        2     8   6    4.9254   520.4    4.554      50.080
2015    5        2     8  12    4.9236   520.4    4.553      50.073
2015    5        2     8  18    4.9218   520.4    4.552      50.065
2015    5        2     8  23    4.9200   520.4    4.551      50.058
2015    5        2     8  29    4.9182   520.4    4.550      50.050
2015    5        2     8  35    4.9164   520.4    4.548      50.043
2015    5        2     8  40    4.9146   520.4    4.547      50.036
2015    5        2     8  46    4.9129   520.4    4.546      50.029
2015    5        2     8  52    4.9111   520.4    4.545      50.022
2015    5        2     8  57    4.9093   520.4    4.544      50.015
2015    5        2     9   3    4.9076   520.4    4.543      50.008
2015    5        2     9   9    4.9058   520.4    4.542      50.002
2015    5        2     9  14    4.9040   520.4    4.540      49.995
2015    5        2     9  20    4.9023   520.3    4.539      49.987
2015    5        2     9  26    4.9006   520.3    4.538      49.980
2015    5        2     9  32    4.8988   520.3    4.537      49.973
2015    5        2     9  37    4.8971   520.3    4.536      49.966
2015    5        2     9  43    4.8954   520.3    4.534      49.958
2015    5        2     9  49    4.8936   520.3    4.533      49.951
2015    5        2     9  54    4.8919   520.3    4.532      49.943
2015    5        2    10   0    4.8902   520.3    4.530      49.936
2015    5        2    10   6    4.8885   520.3    4.529      49.928
2015    5        2    10  11    4.8868   520.3    4.528      49.920
2015    5        2    10  17    4.8851   520.3    4.526      49.912
2015    5        2    10  23    4.8834   520.3    4.525      49.904
2015    5        2    10  28    4.8817   520.3    4.524      49.895
2015    5        2    10  34    4.8800   520.3    4.522      49.887
2015    5        2    10  40    4.8783   520.3    4.521      49.878
2015    5        2    10  46    4.8766   520.3    4.519      49.869
2015    5        2    10  51    4.8750   520.3    4.518      49.860
2015    5        2    10  57    4.8733   520.3    4.517      49.851
2015    5        2    11   3    4.8716   520.3    4.515      49.842
2015    5        2    11   8    4.8699   520.3    4.514      49.832
2015    5        2    11  14    4.8682   520.3    4.512      49.822
2015    5        2    11  20    4.8665   520.3    4.511      49.812
2015    5        2    11  25    4.8648   520.2    4.510      49.802
2015    5        2    11  31    4.8631   520.2    4.508      49.792
2015    5        2    11  37    4.8614   520.2    4.507      49.782
2015    5        2    11  42    4.8598   520.2    4.505      49.771
2015    5        2    11  48    4.8581   520.2    4.504      49.761
2015    5        2    11  54    4.8564   520.2    4.503      49.750
2015    5        2    12   0    4.8547   520.2    4.501      49.739
2015    5        2    12   5    4.8530   520.2    4.500      49.728
2015    5        2    12  11    4.8513   520.2    4.499      49.717
2015    5        2    12  17    4.8495   520.2    4.497      49.706
2015    5        2    12  22    4.8478   520.2    4.496      49.695
2015    5        2    12  28    4.8461   520.2    4.495      49.684
2015    5        2    12  34    4.8443   520.2    4.493      49.673
2015    5        2    12  39    4.8426   520.1    4.492      49.662
2015    5        2    12  45    4.8408   520.1    4.491      49.651
2015    5        2    12  51    4.8391   520.1    4.489      49.640
2015    5        2    12  56    4.8373   520.1    4.488      49.629
2015    5        2    13   2    4.8356   520.1    4.487      49.618
2015    5        2    13   8    4.8338   520.1    4.485      49.607
2015    5        2    13  14    4.8320   520.1    4.484      49.596
2015    5        2    13  19    4.8303   520.1    4.483      49.585
2015    5        2    13  25    4.8285   520.1    4.481      49.575
2015    5        2    13  31    4.8267   520.1    4.480      49.564
2015    5        2    13  36    4.8249   520.0    4.479      49.553
2015    5        2    13  42    4.8231   520.0    4.477      49.542
2015    5        2    13  48    4.8213   520.0    4.476      49.532
2015    5        2    13  53    4.8195   520.0    4.475      49.521
2015    5        2    13  59    4.8177   520.0    4.474      49.511
2015    5        2    14   5    4.8159   520.0    4.472      49.500
2015    5        2    14  10    4.8142   520.0    4.471      49.489
2015    5        2    14  16    4.8124   520.0    4.470      49.479
2015    5        2    14  22    4.8106   519.9    4.469      49.468
2015    5        2    14  28    4.8088   519.9    4.467      49.458
2015    5        2    14  33    4.8070   519.9    4.466      49.448
2015    5        2    14  39    4.8052   519.9    4.465      49.437
2015    5        2    14  45    4.8034   519.9    4.463      49.427
2015    5        2    14  50    4.8016   519.9    4.462      49.417
2015    5        2    14  56    4.7998   519.9    4.461      49.406
2015    5        2    15   2    4.7980   519.8    4.460      49.396
2015    5        2    15   7    4.7962   519.8    4.458      49.386
2015    5        2    15  13    4.7944   519.8    4.457      49.375
2015    5        2    15  19    4.7926   519.8    4.456      49.365
2015    5        2    15  24    4.7908   519.8    4.455      49.355
2015    5        2    15  30    4.7890   519.8    4.453      49.344
2015    5        2    15  36    4.7872   519.8    4.452      49.333
2015    5        2    15  42    4.7854   519.7    4.451      49.323
2015    5        2    15  47    4.7836   519.7    4.449      49.312
2015    5        2    15  53    4.7818   519.7    4.448      49.301
2015    5        2    15  59    4.7800   519.7    4.447      49.291
2015    5        2    16   4    4.7782   519.7    4.446      49.280
2015    5        2    16  10    4.7765   519.6    4.444      49.269
2015    5        2    16  16    4.7747   519.6    4.443      49.258
2015    5        2    16  21    4.7729   519.6    4.442      49.246
2015    5        2    16  27    4.7711   519.6    4.440      49.235
2015    5        2    16  33    4.7694   519.6    4.439      49.224
2015    5        2    16  38    4.7676   519.5    4.438      49.213
2015    5        2    16  44    4.7659   519.5    4.437      49.202
2015    5        2    16  50    4.7641   519.5    4.435      49.190
2015    5        2    16  56    4.7624   519.5    4.434      49.179
2015    5        2    17   1    4.7607   519.5    4.433      49.167
2015    5        2    17   7    4.7589   519.4    4.432      49.156
2015    5        2    17  13    4.7572   519.4    4.431      49.144
2015    5        2    17  18    4.7555   519.4    4.430      49.132
2015    5        2    17  24    4.7537   519.4    4.428      49.120
2015    5        2    17  30    4.7520   519.4    4.427      49.108
2015    5        2    17  35    4.7503   519.3    4.426      49.096
2015    5        2    17  41    4.7485   519.3    4.425      49.084
2015    5        2    17  47    4.7468   519.3    4.424      49.072
2015    5        2    17  52    4.7450   519.3    4.423      49.060
2015    5        2    17  58    4.7433   519.3    4.422      49.048
2015    5        2    18   4    4.7415   519.2    4.421      49.035
2015    5        2    18  10    4.7397   519.2    4.420      49.023
2015    5        2    18  15    4.7380   519.2    4.419      49.010
2015    5        2    18  21    4.7362   519.2    4.418      48.997
2015    5        2    18  27    4.7344   519.1    4.417      48.985
2015    5        2    18  32    4.7326   519.1    4.416      48.972
2015    5        2    18  38    4.7308   519.1    4.415      48.959
2015    5        2    18  44    4.7290   519.1    4.414      48.946
2015    5        2    18  49    4.7272   519.1    4.413      48.933
2015    5        2    18  55    4.7253   519.0    4.412      48.919
2015    5        2    19   1    4.7235   519.0    4.411      48.906
2015    5        2    19   6    4.7216   519.0    4.410      48.893
2015    5        2    19  12    4.7198   519.0    4.409      48.879
2015    5        2    19  18    4.7179   518.9    4.408      48.866
2015    5        2    19  24    4.7160   518.9    4.407      48.852
2015    5        2    19  29    4.7141   518.9    4.406      48.838
2015    5        2    19  35    4.7122   518.8    4.405      48.824
2015    5        2    19  41    4.7103   518.8    4.404      48.811
2015    5        2    19  46    4.7084   518.8    4.403      48.797
2015    5        2    19  52    4.7064   518.8    4.402      48.783
2015    5        2    19  58    4.7045   518.7    4.400      48.769
2015    5        2    20   3    4.7026   518.7    4.399      48.755
2015    5        2    20   9    4.7007   518.7    4.398      48.742
2015    5        2    20  15    4.6987   518.6    4.397      48.728
2015    5        2    20  20    4.6968   518.6    4.395      48.714
2015    5        2    20  26    4.6948   518.6    4.394      48.700
2015    5        2    20  32    4.6929   518.5    4.393      48.687
2015    5        2    20  38    4.6910   518.5    4.392      48.673
2015    5        2    20  43    4.6891   518.5    4.390      48.659
2015    5        2    20  49    4.6871   518.4    4.389      48.645
2015    5        2    20  55    4.6852   518.4    4.387      48.631
2015    5        2    21   0    4.6833   518.4    4.386      48.617
2015    5        2    21   6    4.6814   518.3    4.385      48.603
2015    5        2    21  12    4.6795   518.3    4.383      48.588
2015    5        2    21  17    4.6776   518.3    4.382      48.574
2015    5        2    21  23    4.6756   518.2    4.380      48.559
2015    5        2    21  29    4.6737   518.2    4.379      48.545
2015    5        2    21  34    4.6718   518.2    4.377      48.530
2015    5        2    21  40    4.6699   518.1    4.376      48.515
2015    5        2    21  46    4.6680   518.1    4.374      48.500
2015    5        2    21  52    4.6661   518.0    4.372      48.485
2015    5        2    21  57    4.6642   518.0    4.371      48.469
2015    5        2    22   3    4.6623   518.0    4.369      48.454
2015    5        2    22   9    4.6604   517.9    4.368      48.438
2015    5        2    22  14    4.6585   517.9    4.366      48.422
2015    5        2    22  20    4.6566   517.8    4.364      48.406
2015    5        2    22  26    4.6547   517.8    4.363      48.389
2015    5        2    22  31    4.6528   517.8    4.361      48.373
2015    5        2    22  37    4.6510   517.7    4.359      48.356
2015    5        2    22  43    4.6491   517.7    4.358      48.339
2015    5        2    22  48    4.6472   517.6    4.356      48.322
2015    5        2    22  54    4.6453   517.6    4.354      48.304
2015    5        2    23   0    4.6435   517.6    4.353      48.286
2015    5        2    23   6    4.6416   517.5    4.351      48.269
2015    5        2    23  11    4.6397   517.5    4.349      48.251
2015    5        2    23  17    4.6379   517.4    4.348      48.233
2015    5        2    23  23    4.6361   517.4    4.346      48.215
2015    5        2    23  28    4.6342   517.3    4.345      48.196
2015    5        2    23  34    4.6324   517.3    4.343      48.178
2015    5        2    23  40    4.6306   517.3    4.342      48.160
2015    5        2    23  45    4.6287   517.2    4.340      48.142
2015    5        2    23  51    4.6269   517.2    4.339      48.123
2015    5        2    23  57    4.6251   517.1    4.338      48.105
2015    5        3     0   2    4.6233   517.1    4.337      48.087
2015    5        3     0   8    4.6215   517.0    4.336      48.069
2015    5        3     0  14    4.6197   517.0    4.334      48.052
2015    5        3     0  20    4.6179   516.9    4.333      48.034
2015    5        3     0  25    4.6161   516.9    4.332      48.016
2015    5        3     0  31    4.6142   516.8    4.331      47.999
2015    5        3     0  37    4.6124   516.8    4.331      47.982
2015    5        3     0  42    4.6106   516.7    4.330      47.965
2015    5        3     0  48    4.6087   516.7    4.329      47.947
2015    5        3     0  54    4.6069   516.7    4.328      47.931
2015    5        3     0  59    4.6050   516.6    4.328      47.914
2015    5        3     1   5    4.6031   516.6    4.327      47.897
2015    5        3     1  11    4.6013   516.5    4.326      47.880
2015    5        3     1  16    4.5994   516.5    4.326      47.863
2015    5        3     1  22    4.5974   516.4    4.325      47.847
2015    5        3     1  28    4.5955   516.4    4.325      47.830
2015    5        3     1  34    4.5936   516.3    4.324      47.813
2015    5        3     1  39    4.5916   516.3    4.323      47.796
2015    5        3     1  45    4.5897   516.2    4.323      47.779
2015    5        3     1  51    4.5877   516.2    4.322      47.761
2015    5        3     1  56    4.5857   516.1    4.322      47.744
2015    5        3     2   2    4.5837   516.1    4.321      47.726
2015    5        3     2   8    4.5817   516.0    4.320      47.709
2015    5        3     2  13    4.5797   516.0    4.320      47.690
2015    5        3     2  19    4.5777   515.9    4.319      47.672
2015    5        3     2  25    4.5756   515.8    4.318      47.654
2015    5        3     2  30    4.5736   515.8    4.317      47.635
2015    5        3     2  36    4.5716   515.7    4.317      47.616
2015    5        3     2  42    4.5695   515.7    4.316      47.597
2015    5        3     2  48    4.5675   515.6    4.315      47.578
2015    5        3     2  53    4.5655   515.5    4.314      47.559
2015    5        3     2  59    4.5635   515.5    4.313      47.539
2015    5        3     3   5    4.5615   515.4    4.312      47.520
2015    5        3     3  10    4.5595   515.3    4.311      47.500
2015    5        3     3  16    4.5575   515.3    4.310      47.480
2015    5        3     3  22    4.5555   515.2    4.309      47.460
2015    5        3     3  27    4.5535   515.2    4.308      47.440
2015    5        3     3  33    4.5516   515.1    4.307      47.420
2015    5        3     3  39    4.5496   515.0    4.306      47.400
