year    month   day   hour  minute  B_enl V_enl   n_enl       T_enl
[year] [month] [day] [hour][minute] [nT]  [km/s]  [cm-3]      [kK]
2014   10        2     0   0    4.49   406.3    5.9      38.276
2014   10        2     0   6    4.49   406.2    5.9      38.258
2014   10        2     0  11    4.49   406.1    5.9      38.240
2014   10        2     0  16    4.49   405.9    5.9      38.222
2014   10        2     0  22    4.49   405.8    5.9      38.205
2014   10        2     0  27    4.49   405.7    5.9      38.187
2014   10        2     0  33    4.49   405.5    5.9      38.169
2014   10        2     0  38    4.49   405.4    5.9      38.152
2014   10        2     0  43    4.50   405.3    5.9      38.134
2014   10        2     0  49    4.50   405.1    6.0      38.117
2014   10        2     0  54    4.50   405.0    6.0      38.099
2014   10        2     1   0    4.50   404.8    6.0      38.082
2014   10        2     1   5    4.50   404.7    6.0      38.065
2014   10        2     1  10    4.50   404.6    6.0      38.047
2014   10        2     1  16    4.50   404.5    6.0      38.030
2014   10        2     1  21    4.50   404.3    6.0      38.013
2014   10        2     1  27    4.51   404.2    6.0      37.996
2014   10        2     1  32    4.51   404.1    6.0      37.979
2014   10        2     1  37    4.51   403.9    6.0      37.962
2014   10        2     1  43    4.51   403.8    6.0      37.945
2014   10        2     1  48    4.51   403.7    6.0      37.928
2014   10        2     1  54    4.51   403.5    6.0      37.911
2014   10        2     1  59    4.51   403.4    6.0      37.895
2014   10        2     2   4    4.52   403.3    6.0      37.878
2014   10        2     2  10    4.52   403.1    6.0      37.861
2014   10        2     2  15    4.52   403.0    6.0      37.845
2014   10        2     2  20    4.52   402.9    6.0      37.828
2014   10        2     2  26    4.52   402.7    6.1      37.811
2014   10        2     2  31    4.52   402.6    6.1      37.795
2014   10        2     2  37    4.52   402.5    6.1      37.778
2014   10        2     2  42    4.53   402.4    6.1      37.761
2014   10        2     2  47    4.53   402.2    6.1      37.745
2014   10        2     2  53    4.53   402.1    6.1      37.728
2014   10        2     2  58    4.53   402.0    6.1      37.712
2014   10        2     3   4    4.53   401.8    6.1      37.695
2014   10        2     3   9    4.53   401.7    6.1      37.679
2014   10        2     3  14    4.53   401.6    6.1      37.662
2014   10        2     3  20    4.54   401.5    6.1      37.646
2014   10        2     3  25    4.54   401.3    6.1      37.629
2014   10        2     3  31    4.54   401.2    6.1      37.613
2014   10        2     3  36    4.54   401.1    6.1      37.596
2014   10        2     3  41    4.54   400.9    6.1      37.580
2014   10        2     3  47    4.54   400.8    6.1      37.563
2014   10        2     3  52    4.55   400.7    6.1      37.547
2014   10        2     3  58    4.55   400.6    6.2      37.531
2014   10        2     4   3    4.55   400.4    6.2      37.514
2014   10        2     4   8    4.55   400.3    6.2      37.498
2014   10        2     4  14    4.55   400.2    6.2      37.482
2014   10        2     4  19    4.55   400.1    6.2      37.466
2014   10        2     4  25    4.56   399.9    6.2      37.450
2014   10        2     4  30    4.56   399.8    6.2      37.434
2014   10        2     4  35    4.56   399.7    6.2      37.418
2014   10        2     4  41    4.56   399.5    6.2      37.402
2014   10        2     4  46    4.56   399.4    6.2      37.386
2014   10        2     4  51    4.56   399.3    6.2      37.370
2014   10        2     4  57    4.57   399.2    6.2      37.354
2014   10        2     5   2    4.57   399.0    6.2      37.339
2014   10        2     5   8    4.57   398.9    6.2      37.323
2014   10        2     5  13    4.57   398.8    6.2      37.308
2014   10        2     5  18    4.57   398.7    6.2      37.292
2014   10        2     5  24    4.57   398.5    6.3      37.277
2014   10        2     5  29    4.58   398.4    6.3      37.262
2014   10        2     5  35    4.58   398.3    6.3      37.247
2014   10        2     5  40    4.58   398.2    6.3      37.232
2014   10        2     5  45    4.58   398.1    6.3      37.217
2014   10        2     5  51    4.58   397.9    6.3      37.202
2014   10        2     5  56    4.59   397.8    6.3      37.187
2014   10        2     6   2    4.59   397.7    6.3      37.172
2014   10        2     6   7    4.59   397.6    6.3      37.157
2014   10        2     6  12    4.59   397.4    6.3      37.142
2014   10        2     6  18    4.59   397.3    6.3      37.128
2014   10        2     6  23    4.60   397.2    6.3      37.113
2014   10        2     6  29    4.60   397.1    6.3      37.099
2014   10        2     6  34    4.60   397.0    6.3      37.084
2014   10        2     6  39    4.60   396.8    6.3      37.069
2014   10        2     6  45    4.60   396.7    6.4      37.055
2014   10        2     6  50    4.61   396.6    6.4      37.040
2014   10        2     6  56    4.61   396.5    6.4      37.026
2014   10        2     7   1    4.61   396.4    6.4      37.011
2014   10        2     7   6    4.61   396.2    6.4      36.997
2014   10        2     7  12    4.61   396.1    6.4      36.983
2014   10        2     7  17    4.62   396.0    6.4      36.968
2014   10        2     7  23    4.62   395.9    6.4      36.954
2014   10        2     7  28    4.62   395.8    6.4      36.940
2014   10        2     7  33    4.62   395.7    6.4      36.925
2014   10        2     7  39    4.62   395.5    6.4      36.911
2014   10        2     7  44    4.63   395.4    6.4      36.897
2014   10        2     7  49    4.63   395.3    6.4      36.882
2014   10        2     7  55    4.63   395.2    6.4      36.868
2014   10        2     8   0    4.63   395.1    6.5      36.854
2014   10        2     8   6    4.63   394.9    6.5      36.840
2014   10        2     8  11    4.64   394.8    6.5      36.825
2014   10        2     8  16    4.64   394.7    6.5      36.812
2014   10        2     8  22    4.64   394.6    6.5      36.797
2014   10        2     8  27    4.64   394.5    6.5      36.784
2014   10        2     8  33    4.65   394.4    6.5      36.770
2014   10        2     8  38    4.65   394.3    6.5      36.756
2014   10        2     8  43    4.65   394.1    6.5      36.742
2014   10        2     8  49    4.65   394.0    6.5      36.729
2014   10        2     8  54    4.65   393.9    6.5      36.715
2014   10        2     9   0    4.66   393.8    6.5      36.702
2014   10        2     9   5    4.66   393.7    6.5      36.688
2014   10        2     9  10    4.66   393.6    6.5      36.675
2014   10        2     9  16    4.66   393.5    6.6      36.662
2014   10        2     9  21    4.67   393.4    6.6      36.649
2014   10        2     9  27    4.67   393.2    6.6      36.636
2014   10        2     9  32    4.67   393.1    6.6      36.624
2014   10        2     9  37    4.67   393.0    6.6      36.611
2014   10        2     9  43    4.68   392.9    6.6      36.599
2014   10        2     9  48    4.68   392.8    6.6      36.586
2014   10        2     9  53    4.68   392.7    6.6      36.574
2014   10        2     9  59    4.68   392.6    6.6      36.562
2014   10        2    10   4    4.69   392.5    6.6      36.550
2014   10        2    10  10    4.69   392.4    6.6      36.538
2014   10        2    10  15    4.69   392.3    6.6      36.527
2014   10        2    10  20    4.69   392.2    6.6      36.515
2014   10        2    10  26    4.70   392.0    6.7      36.504
2014   10        2    10  31    4.70   391.9    6.7      36.493
2014   10        2    10  37    4.70   391.8    6.7      36.481
2014   10        2    10  42    4.70   391.7    6.7      36.471
2014   10        2    10  47    4.71   391.6    6.7      36.460
2014   10        2    10  53    4.71   391.5    6.7      36.449
2014   10        2    10  58    4.71   391.4    6.7      36.438
2014   10        2    11   4    4.71   391.3    6.7      36.428
2014   10        2    11   9    4.72   391.2    6.7      36.418
2014   10        2    11  14    4.72   391.1    6.7      36.407
2014   10        2    11  20    4.72   391.0    6.7      36.397
2014   10        2    11  25    4.73   390.9    6.7      36.388
2014   10        2    11  31    4.73   390.8    6.8      36.378
2014   10        2    11  36    4.73   390.7    6.8      36.368
2014   10        2    11  41    4.73   390.6    6.8      36.358
2014   10        2    11  47    4.74   390.5    6.8      36.349
2014   10        2    11  52    4.74   390.4    6.8      36.340
2014   10        2    11  58    4.74   390.3    6.8      36.331
2014   10        2    12   3    4.75   390.2    6.8      36.321
2014   10        2    12   8    4.75   390.1    6.8      36.312
2014   10        2    12  14    4.75   390.0    6.8      36.303
2014   10        2    12  19    4.75   389.9    6.8      36.295
2014   10        2    12  24    4.76   389.8    6.8      36.286
2014   10        2    12  30    4.76   389.7    6.8      36.277
2014   10        2    12  35    4.76   389.6    6.9      36.269
2014   10        2    12  41    4.77   389.5    6.9      36.261
2014   10        2    12  46    4.77   389.4    6.9      36.252
2014   10        2    12  51    4.77   389.3    6.9      36.244
2014   10        2    12  57    4.77   389.2    6.9      36.236
2014   10        2    13   2    4.78   389.1    6.9      36.228
2014   10        2    13   8    4.78   389.1    6.9      36.220
2014   10        2    13  13    4.78   389.0    6.9      36.212
2014   10        2    13  18    4.79   388.9    6.9      36.204
2014   10        2    13  24    4.79   388.8    6.9      36.196
2014   10        2    13  29    4.79   388.7    6.9      36.188
2014   10        2    13  35    4.80   388.6    6.9      36.180
2014   10        2    13  40    4.80   388.5    7.0      36.172
2014   10        2    13  45    4.80   388.4    7.0      36.165
2014   10        2    13  51    4.80   388.3    7.0      36.157
2014   10        2    13  56    4.81   388.2    7.0      36.149
2014   10        2    14   2    4.81   388.1    7.0      36.142
2014   10        2    14   7    4.81   388.1    7.0      36.134
2014   10        2    14  12    4.82   388.0    7.0      36.126
2014   10        2    14  18    4.82   387.9    7.0      36.119
2014   10        2    14  23    4.82   387.8    7.0      36.111
2014   10        2    14  29    4.83   387.7    7.0      36.103
2014   10        2    14  34    4.83   387.6    7.0      36.096
2014   10        2    14  39    4.83   387.5    7.0      36.088
2014   10        2    14  45    4.84   387.5    7.1      36.081
2014   10        2    14  50    4.84   387.4    7.1      36.073
2014   10        2    14  55    4.84   387.3    7.1      36.066
2014   10        2    15   1    4.84   387.2    7.1      36.058
2014   10        2    15   6    4.85   387.1    7.1      36.050
2014   10        2    15  12    4.85   387.0    7.1      36.043
2014   10        2    15  17    4.85   386.9    7.1      36.035
2014   10        2    15  22    4.86   386.9    7.1      36.028
2014   10        2    15  28    4.86   386.8    7.1      36.021
2014   10        2    15  33    4.86   386.7    7.1      36.013
2014   10        2    15  39    4.87   386.6    7.1      36.006
2014   10        2    15  44    4.87   386.5    7.1      35.999
2014   10        2    15  49    4.87   386.5    7.2      35.992
2014   10        2    15  55    4.88   386.4    7.2      35.984
2014   10        2    16   0    4.88   386.3    7.2      35.977
2014   10        2    16   6    4.88   386.2    7.2      35.971
2014   10        2    16  11    4.89   386.1    7.2      35.964
2014   10        2    16  16    4.89   386.1    7.2      35.957
2014   10        2    16  22    4.89   386.0    7.2      35.950
2014   10        2    16  27    4.90   385.9    7.2      35.944
2014   10        2    16  33    4.90   385.8    7.2      35.937
2014   10        2    16  38    4.90   385.7    7.2      35.931
2014   10        2    16  43    4.91   385.7    7.2      35.925
2014   10        2    16  49    4.91   385.6    7.2      35.918
2014   10        2    16  54    4.91   385.5    7.3      35.913
2014   10        2    17   0    4.92   385.4    7.3      35.907
2014   10        2    17   5    4.92   385.4    7.3      35.901
2014   10        2    17  10    4.92   385.3    7.3      35.895
2014   10        2    17  16    4.93   385.2    7.3      35.890
2014   10        2    17  21    4.93   385.1    7.3      35.885
2014   10        2    17  26    4.94   385.1    7.3      35.880
2014   10        2    17  32    4.94   385.0    7.3      35.875
2014   10        2    17  37    4.94   384.9    7.3      35.870
2014   10        2    17  43    4.95   384.9    7.3      35.865
2014   10        2    17  48    4.95   384.8    7.3      35.861
2014   10        2    17  53    4.95   384.7    7.4      35.857
2014   10        2    17  59    4.96   384.7    7.4      35.853
2014   10        2    18   4    4.96   384.6    7.4      35.849
2014   10        2    18  10    4.96   384.5    7.4      35.845
2014   10        2    18  15    4.97   384.5    7.4      35.841
2014   10        2    18  20    4.97   384.4    7.4      35.838
2014   10        2    18  26    4.97   384.3    7.4      35.834
2014   10        2    18  31    4.98   384.3    7.4      35.831
2014   10        2    18  37    4.98   384.2    7.4      35.828
2014   10        2    18  42    4.99   384.1    7.4      35.826
2014   10        2    18  47    4.99   384.1    7.4      35.823
2014   10        2    18  53    4.99   384.0    7.4      35.820
2014   10        2    18  58    5.00   383.9    7.5      35.818
2014   10        2    19   4    5.00   383.9    7.5      35.816
2014   10        2    19   9    5.00   383.8    7.5      35.814
2014   10        2    19  14    5.01   383.7    7.5      35.812
2014   10        2    19  20    5.01   383.7    7.5      35.810
2014   10        2    19  25    5.02   383.6    7.5      35.808
2014   10        2    19  31    5.02   383.6    7.5      35.807
2014   10        2    19  36    5.02   383.5    7.5      35.805
2014   10        2    19  41    5.03   383.4    7.5      35.804
2014   10        2    19  47    5.03   383.4    7.5      35.803
2014   10        2    19  52    5.04   383.3    7.5      35.801
2014   10        2    19  57    5.04   383.3    7.6      35.800
2014   10        2    20   3    5.04   383.2    7.6      35.799
2014   10        2    20   8    5.05   383.2    7.6      35.798
2014   10        2    20  14    5.05   383.1    7.6      35.797
2014   10        2    20  19    5.05   383.1    7.6      35.796
2014   10        2    20  24    5.06   383.0    7.6      35.795
2014   10        2    20  30    5.06   382.9    7.6      35.794
2014   10        2    20  35    5.07   382.9    7.6      35.793
2014   10        2    20  41    5.07   382.8    7.6      35.792
2014   10        2    20  46    5.07   382.8    7.6      35.791
2014   10        2    20  51    5.08   382.7    7.6      35.790
2014   10        2    20  57    5.08   382.7    7.7      35.789
2014   10        2    21   2    5.09   382.6    7.7      35.788
2014   10        2    21   8    5.09   382.6    7.7      35.787
2014   10        2    21  13    5.09   382.5    7.7      35.786
2014   10        2    21  18    5.10   382.5    7.7      35.785
2014   10        2    21  24    5.10   382.4    7.7      35.785
2014   10        2    21  29    5.11   382.4    7.7      35.784
2014   10        2    21  35    5.11   382.3    7.7      35.783
2014   10        2    21  40    5.11   382.3    7.7      35.782
2014   10        2    21  45    5.12   382.2    7.7      35.782
2014   10        2    21  51    5.12   382.2    7.7      35.781
2014   10        2    21  56    5.13   382.1    7.7      35.780
2014   10        2    22   2    5.13   382.1    7.8      35.779
2014   10        2    22   7    5.13   382.0    7.8      35.779
2014   10        2    22  12    5.14   382.0    7.8      35.779
2014   10        2    22  18    5.14   381.9    7.8      35.778
2014   10        2    22  23    5.15   381.9    7.8      35.778
2014   10        2    22  28    5.15   381.8    7.8      35.778
2014   10        2    22  34    5.15   381.8    7.8      35.777
2014   10        2    22  39    5.16   381.7    7.8      35.777
2014   10        2    22  45    5.16   381.7    7.8      35.778
2014   10        2    22  50    5.17   381.6    7.8      35.778
2014   10        2    22  55    5.17   381.6    7.8      35.778
2014   10        2    23   1    5.17   381.5    7.8      35.779
2014   10        2    23   6    5.18   381.5    7.9      35.779
2014   10        2    23  12    5.18   381.5    7.9      35.780
2014   10        2    23  17    5.19   381.4    7.9      35.781
2014   10        2    23  22    5.19   381.4    7.9      35.782
2014   10        2    23  28    5.19   381.3    7.9      35.783
2014   10        2    23  33    5.20   381.3    7.9      35.785
2014   10        2    23  39    5.20   381.2    7.9      35.787
2014   10        2    23  44    5.21   381.2    7.9      35.789
2014   10        2    23  49    5.21   381.2    7.9      35.791
2014   10        2    23  55    5.21   381.1    7.9      35.793
2014   10        3     0   0    5.22   381.1    7.9      35.795
2014   10        3     0   6    5.22   381.0    7.9      35.798
2014   10        3     0  11    5.23   381.0    8.0      35.801
2014   10        3     0  16    5.23   381.0    8.0      35.803
2014   10        3     0  22    5.24   380.9    8.0      35.806
2014   10        3     0  27    5.24   380.9    8.0      35.809
2014   10        3     0  33    5.24   380.9    8.0      35.813
2014   10        3     0  38    5.25   380.8    8.0      35.816
2014   10        3     0  43    5.25   380.8    8.0      35.819
2014   10        3     0  49    5.26   380.7    8.0      35.822
2014   10        3     0  54    5.26   380.7    8.0      35.825
2014   10        3     0  59    5.26   380.7    8.0      35.829
2014   10        3     1   5    5.27   380.6    8.0      35.832
2014   10        3     1  10    5.27   380.6    8.0      35.836
2014   10        3     1  16    5.28   380.6    8.0      35.839
2014   10        3     1  21    5.28   380.5    8.1      35.842
2014   10        3     1  26    5.28   380.5    8.1      35.845
2014   10        3     1  32    5.29   380.5    8.1      35.849
2014   10        3     1  37    5.29   380.4    8.1      35.852
2014   10        3     1  43    5.30   380.4    8.1      35.855
2014   10        3     1  48    5.30   380.4    8.1      35.859
2014   10        3     1  53    5.31   380.3    8.1      35.862
2014   10        3     1  59    5.31   380.3    8.1      35.866
2014   10        3     2   4    5.31   380.3    8.1      35.869
2014   10        3     2  10    5.32   380.3    8.1      35.873
2014   10        3     2  15    5.32   380.2    8.1      35.876
2014   10        3     2  20    5.33   380.2    8.1      35.880
2014   10        3     2  26    5.33   380.2    8.1      35.883
2014   10        3     2  31    5.34   380.1    8.2      35.887
2014   10        3     2  37    5.34   380.1    8.2      35.891
2014   10        3     2  42    5.34   380.1    8.2      35.895
2014   10        3     2  47    5.35   380.1    8.2      35.899
2014   10        3     2  53    5.35   380.0    8.2      35.903
2014   10        3     2  58    5.36   380.0    8.2      35.907
2014   10        3     3   4    5.36   380.0    8.2      35.911
2014   10        3     3   9    5.37   380.0    8.2      35.915
2014   10        3     3  14    5.37   379.9    8.2      35.919
2014   10        3     3  20    5.37   379.9    8.2      35.924
2014   10        3     3  25    5.38   379.9    8.2      35.928
2014   10        3     3  30    5.38   379.9    8.2      35.933
2014   10        3     3  36    5.39   379.8    8.2      35.938
2014   10        3     3  41    5.39   379.8    8.2      35.943
2014   10        3     3  47    5.40   379.8    8.3      35.948
