year    month   day   hour  minute  B_enl V_enl   n_enl       T_enl
[year] [month] [day] [hour][minute] [nT]  [km/s]  [cm-3]      [kK]
2015    2       23     0   4    5.0168   478.6    5.063      40.789
2015    2       23     0   9    5.0162   478.4    5.066      40.764
2015    2       23     0  14    5.0156   478.2    5.068      40.738
2015    2       23     0  20    5.0150   478.1    5.071      40.713
2015    2       23     0  25    5.0145   477.9    5.074      40.688
2015    2       23     0  30    5.0140   477.8    5.076      40.663
2015    2       23     0  35    5.0134   477.6    5.079      40.639
2015    2       23     0  41    5.0129   477.4    5.082      40.614
2015    2       23     0  46    5.0124   477.3    5.085      40.590
2015    2       23     0  51    5.0119   477.1    5.087      40.566
2015    2       23     0  56    5.0114   476.9    5.090      40.542
2015    2       23     1   2    5.0110   476.8    5.093      40.519
2015    2       23     1   7    5.0106   476.6    5.096      40.495
2015    2       23     1  12    5.0101   476.4    5.099      40.472
2015    2       23     1  17    5.0097   476.3    5.103      40.449
2015    2       23     1  22    5.0094   476.1    5.106      40.426
2015    2       23     1  28    5.0090   475.9    5.109      40.404
2015    2       23     1  33    5.0086   475.8    5.112      40.381
2015    2       23     1  38    5.0083   475.6    5.115      40.359
2015    2       23     1  43    5.0080   475.4    5.119      40.337
2015    2       23     1  49    5.0077   475.3    5.122      40.315
2015    2       23     1  54    5.0075   475.1    5.126      40.293
2015    2       23     1  59    5.0073   474.9    5.129      40.271
2015    2       23     2   4    5.0070   474.8    5.133      40.250
2015    2       23     2   9    5.0068   474.6    5.136      40.228
2015    2       23     2  15    5.0066   474.4    5.140      40.207
2015    2       23     2  20    5.0065   474.3    5.143      40.186
2015    2       23     2  25    5.0064   474.1    5.147      40.166
2015    2       23     2  30    5.0063   474.0    5.151      40.145
2015    2       23     2  36    5.0062   473.8    5.155      40.124
2015    2       23     2  41    5.0063   473.6    5.158      40.104
2015    2       23     2  46    5.0061   473.5    5.162      40.083
2015    2       23     2  51    5.0061   473.3    5.166      40.063
2015    2       23     2  57    5.0062   473.1    5.170      40.042
2015    2       23     3   2    5.0062   473.0    5.173      40.021
2015    2       23     3   7    5.0064   472.8    5.177      40.001
2015    2       23     3  12    5.0063   472.6    5.181      39.980
2015    2       23     3  17    5.0064   472.5    5.185      39.959
2015    2       23     3  23    5.0065   472.3    5.188      39.938
2015    2       23     3  28    5.0067   472.2    5.192      39.917
2015    2       23     3  33    5.0068   472.0    5.196      39.895
2015    2       23     3  38    5.0070   471.8    5.199      39.874
2015    2       23     3  44    5.0071   471.7    5.203      39.852
2015    2       23     3  49    5.0073   471.5    5.207      39.830
2015    2       23     3  54    5.0075   471.4    5.210      39.808
2015    2       23     3  59    5.0079   471.2    5.214      39.786
2015    2       23     4   5    5.0079   471.0    5.217      39.763
2015    2       23     4  10    5.0082   470.9    5.221      39.740
2015    2       23     4  15    5.0084   470.7    5.224      39.718
2015    2       23     4  20    5.0087   470.6    5.228      39.695
2015    2       23     4  25    5.0089   470.4    5.231      39.672
2015    2       23     4  31    5.0092   470.3    5.235      39.649
2015    2       23     4  36    5.0095   470.1    5.238      39.626
2015    2       23     4  41    5.0099   470.0    5.242      39.603
2015    2       23     4  46    5.0102   469.8    5.246      39.580
2015    2       23     4  52    5.0107   469.6    5.249      39.557
2015    2       23     4  57    5.0110   469.5    5.253      39.533
2015    2       23     5   2    5.0115   469.3    5.256      39.510
2015    2       23     5   7    5.0117   469.2    5.260      39.487
2015    2       23     5  13    5.0123   469.0    5.264      39.464
2015    2       23     5  18    5.0126   468.9    5.267      39.441
2015    2       23     5  23    5.0131   468.7    5.271      39.418
2015    2       23     5  28    5.0135   468.6    5.275      39.395
2015    2       23     5  33    5.0140   468.4    5.279      39.372
2015    2       23     5  39    5.0145   468.3    5.282      39.349
2015    2       23     5  44    5.0151   468.1    5.286      39.327
2015    2       23     5  49    5.0156   468.0    5.290      39.304
2015    2       23     5  54    5.0162   467.8    5.294      39.282
2015    2       23     6   0    5.0167   467.7    5.298      39.260
2015    2       23     6   5    5.0173   467.5    5.302      39.238
2015    2       23     6  10    5.0179   467.4    5.306      39.216
2015    2       23     6  15    5.0186   467.2    5.311      39.195
2015    2       23     6  20    5.0192   467.1    5.315      39.173
2015    2       23     6  26    5.0198   466.9    5.319      39.152
2015    2       23     6  31    5.0205   466.8    5.323      39.131
2015    2       23     6  36    5.0213   466.6    5.328      39.110
2015    2       23     6  41    5.0218   466.5    5.332      39.090
2015    2       23     6  47    5.0227   466.3    5.337      39.069
2015    2       23     6  52    5.0233   466.2    5.341      39.049
2015    2       23     6  57    5.0242   466.0    5.346      39.030
2015    2       23     7   2    5.0248   465.9    5.350      39.010
2015    2       23     7   8    5.0255   465.7    5.355      38.991
2015    2       23     7  13    5.0263   465.6    5.360      38.972
2015    2       23     7  18    5.0271   465.5    5.365      38.954
2015    2       23     7  23    5.0279   465.3    5.370      38.935
2015    2       23     7  28    5.0287   465.2    5.375      38.918
2015    2       23     7  34    5.0296   465.0    5.380      38.900
2015    2       23     7  39    5.0304   464.9    5.385      38.883
2015    2       23     7  44    5.0313   464.7    5.390      38.866
2015    2       23     7  49    5.0322   464.6    5.395      38.850
2015    2       23     7  55    5.0332   464.5    5.401      38.834
2015    2       23     8   0    5.0340   464.3    5.406      38.818
2015    2       23     8   5    5.0349   464.2    5.412      38.803
2015    2       23     8  10    5.0359   464.0    5.417      38.788
2015    2       23     8  16    5.0369   463.9    5.423      38.773
2015    2       23     8  21    5.0379   463.7    5.429      38.760
2015    2       23     8  26    5.0390   463.6    5.435      38.746
2015    2       23     8  31    5.0399   463.5    5.441      38.733
2015    2       23     8  36    5.0410   463.3    5.447      38.720
2015    2       23     8  42    5.0421   463.2    5.453      38.708
2015    2       23     8  47    5.0432   463.1    5.460      38.697
2015    2       23     8  52    5.0444   462.9    5.466      38.686
2015    2       23     8  57    5.0455   462.8    5.473      38.675
2015    2       23     9   3    5.0467   462.6    5.479      38.665
2015    2       23     9   8    5.0480   462.5    5.486      38.655
2015    2       23     9  13    5.0492   462.4    5.493      38.646
2015    2       23     9  18    5.0507   462.2    5.500      38.637
2015    2       23     9  23    5.0518   462.1    5.507      38.629
2015    2       23     9  29    5.0531   462.0    5.514      38.621
2015    2       23     9  34    5.0545   461.9    5.521      38.614
2015    2       23     9  39    5.0559   461.7    5.528      38.607
2015    2       23     9  44    5.0573   461.6    5.536      38.600
2015    2       23     9  50    5.0588   461.5    5.543      38.594
2015    2       23     9  55    5.0603   461.3    5.551      38.589
2015    2       23    10   0    5.0618   461.2    5.558      38.583
2015    2       23    10   5    5.0633   461.1    5.566      38.578
2015    2       23    10  11    5.0649   461.0    5.573      38.573
2015    2       23    10  16    5.0664   460.9    5.581      38.569
2015    2       23    10  21    5.0680   460.7    5.589      38.564
2015    2       23    10  26    5.0697   460.6    5.596      38.560
2015    2       23    10  31    5.0713   460.5    5.604      38.555
2015    2       23    10  37    5.0729   460.4    5.612      38.551
2015    2       23    10  42    5.0746   460.3    5.619      38.546
2015    2       23    10  47    5.0763   460.2    5.627      38.542
2015    2       23    10  52    5.0780   460.0    5.635      38.538
2015    2       23    10  58    5.0797   459.9    5.642      38.534
2015    2       23    11   3    5.0816   459.8    5.650      38.529
2015    2       23    11   8    5.0831   459.7    5.658      38.525
2015    2       23    11  13    5.0849   459.6    5.665      38.520
2015    2       23    11  19    5.0866   459.5    5.673      38.516
2015    2       23    11  24    5.0884   459.4    5.680      38.512
2015    2       23    11  29    5.0902   459.3    5.688      38.508
2015    2       23    11  34    5.0920   459.2    5.695      38.504
2015    2       23    11  39    5.0938   459.1    5.703      38.500
2015    2       23    11  45    5.0956   459.0    5.710      38.497
2015    2       23    11  50    5.0974   458.9    5.717      38.494
2015    2       23    11  55    5.0992   458.8    5.725      38.491
2015    2       23    12   0    5.1011   458.7    5.732      38.488
2015    2       23    12   6    5.1031   458.6    5.739      38.486
2015    2       23    12  11    5.1048   458.5    5.746      38.483
2015    2       23    12  16    5.1067   458.4    5.753      38.480
2015    2       23    12  21    5.1085   458.3    5.760      38.478
2015    2       23    12  26    5.1104   458.2    5.767      38.475
2015    2       23    12  32    5.1123   458.1    5.774      38.473
2015    2       23    12  37    5.1142   458.0    5.780      38.470
2015    2       23    12  42    5.1160   457.9    5.787      38.468
2015    2       23    12  47    5.1179   457.8    5.793      38.465
2015    2       23    12  53    5.1198   457.7    5.800      38.462
2015    2       23    12  58    5.1217   457.6    5.806      38.459
2015    2       23    13   3    5.1236   457.5    5.813      38.455
2015    2       23    13   8    5.1255   457.4    5.819      38.452
2015    2       23    13  14    5.1274   457.3    5.825      38.448
2015    2       23    13  19    5.1293   457.2    5.831      38.444
2015    2       23    13  24    5.1312   457.2    5.838      38.440
2015    2       23    13  29    5.1331   457.1    5.844      38.435
2015    2       23    13  34    5.1350   457.0    5.850      38.431
2015    2       23    13  40    5.1370   456.9    5.856      38.426
2015    2       23    13  45    5.1388   456.8    5.861      38.421
2015    2       23    13  50    5.1407   456.7    5.867      38.416
2015    2       23    13  55    5.1426   456.7    5.873      38.411
2015    2       23    14   1    5.1445   456.6    5.879      38.406
2015    2       23    14   6    5.1464   456.5    5.885      38.401
2015    2       23    14  11    5.1484   456.4    5.890      38.396
2015    2       23    14  16    5.1502   456.3    5.896      38.390
2015    2       23    14  22    5.1521   456.3    5.902      38.385
2015    2       23    14  27    5.1540   456.2    5.907      38.379
2015    2       23    14  32    5.1559   456.1    5.913      38.374
2015    2       23    14  37    5.1580   456.0    5.918      38.368
2015    2       23    14  42    5.1599   456.0    5.924      38.363
2015    2       23    14  48    5.1617   455.9    5.930      38.357
2015    2       23    14  53    5.1636   455.8    5.935      38.352
2015    2       23    14  58    5.1655   455.7    5.941      38.346
2015    2       23    15   3    5.1674   455.7    5.946      38.340
2015    2       23    15   9    5.1694   455.6    5.951      38.334
2015    2       23    15  14    5.1713   455.5    5.957      38.329
2015    2       23    15  19    5.1732   455.5    5.962      38.323
2015    2       23    15  24    5.1753   455.4    5.968      38.318
2015    2       23    15  30    5.1771   455.3    5.973      38.312
2015    2       23    15  35    5.1791   455.3    5.979      38.306
2015    2       23    15  40    5.1810   455.2    5.984      38.301
2015    2       23    15  45    5.1830   455.1    5.990      38.295
2015    2       23    15  50    5.1849   455.1    5.995      38.290
2015    2       23    15  56    5.1869   455.0    6.000      38.284
2015    2       23    16   1    5.1889   454.9    6.006      38.279
2015    2       23    16   6    5.1908   454.9    6.011      38.273
2015    2       23    16  11    5.1928   454.8    6.017      38.268
2015    2       23    16  17    5.1948   454.7    6.022      38.262
2015    2       23    16  22    5.1968   454.7    6.028      38.257
2015    2       23    16  27    5.1988   454.6    6.033      38.252
2015    2       23    16  32    5.2008   454.6    6.039      38.246
2015    2       23    16  37    5.2028   454.5    6.044      38.241
2015    2       23    16  43    5.2048   454.4    6.050      38.236
2015    2       23    16  48    5.2068   454.4    6.055      38.230
2015    2       23    16  53    5.2088   454.3    6.061      38.225
2015    2       23    16  58    5.2108   454.3    6.067      38.220
2015    2       23    17   4    5.2129   454.2    6.072      38.215
2015    2       23    17   9    5.2149   454.1    6.078      38.210
2015    2       23    17  14    5.2169   454.1    6.083      38.206
2015    2       23    17  19    5.2189   454.0    6.089      38.201
2015    2       23    17  25    5.2210   454.0    6.095      38.196
2015    2       23    17  30    5.2230   453.9    6.100      38.192
2015    2       23    17  35    5.2250   453.9    6.106      38.187
2015    2       23    17  40    5.2271   453.8    6.112      38.183
2015    2       23    17  45    5.2291   453.8    6.118      38.179
2015    2       23    17  51    5.2311   453.7    6.123      38.175
2015    2       23    17  56    5.2332   453.7    6.129      38.172
2015    2       23    18   1    5.2352   453.6    6.135      38.168
2015    2       23    18   6    5.2373   453.5    6.141      38.165
2015    2       23    18  12    5.2393   453.5    6.147      38.161
2015    2       23    18  17    5.2414   453.4    6.153      38.159
2015    2       23    18  22    5.2435   453.4    6.159      38.156
2015    2       23    18  27    5.2455   453.3    6.165      38.154
2015    2       23    18  33    5.2476   453.3    6.171      38.151
2015    2       23    18  38    5.2497   453.2    6.177      38.149
2015    2       23    18  43    5.2517   453.2    6.183      38.148
2015    2       23    18  48    5.2538   453.1    6.189      38.147
2015    2       23    18  53    5.2559   453.1    6.195      38.146
2015    2       23    18  59    5.2580   453.1    6.201      38.146
2015    2       23    19   4    5.2601   453.0    6.207      38.146
2015    2       23    19   9    5.2622   453.0    6.213      38.147
2015    2       23    19  14    5.2643   452.9    6.219      38.148
2015    2       23    19  20    5.2664   452.9    6.225      38.150
2015    2       23    19  25    5.2685   452.8    6.231      38.151
2015    2       23    19  30    5.2706   452.8    6.237      38.153
2015    2       23    19  35    5.2728   452.7    6.243      38.155
2015    2       23    19  40    5.2749   452.7    6.249      38.158
2015    2       23    19  46    5.2770   452.7    6.255      38.160
2015    2       23    19  51    5.2790   452.6    6.261      38.163
2015    2       23    19  56    5.2811   452.6    6.267      38.166
2015    2       23    20   1    5.2832   452.5    6.272      38.168
2015    2       23    20   7    5.2853   452.5    6.278      38.171
2015    2       23    20  12    5.2874   452.5    6.283      38.174
2015    2       23    20  17    5.2895   452.4    6.289      38.176
2015    2       23    20  22    5.2915   452.4    6.294      38.178
2015    2       23    20  28    5.2936   452.3    6.299      38.181
2015    2       23    20  33    5.2956   452.3    6.305      38.183
2015    2       23    20  38    5.2976   452.3    6.310      38.185
2015    2       23    20  43    5.2996   452.2    6.315      38.186
2015    2       23    20  48    5.3017   452.2    6.320      38.188
2015    2       23    20  54    5.3037   452.1    6.325      38.189
2015    2       23    20  59    5.3057   452.1    6.330      38.190
2015    2       23    21   4    5.3077   452.1    6.334      38.191
2015    2       23    21   9    5.3097   452.0    6.339      38.192
2015    2       23    21  15    5.3117   452.0    6.344      38.193
2015    2       23    21  20    5.3137   452.0    6.348      38.193
2015    2       23    21  25    5.3157   451.9    6.353      38.194
2015    2       23    21  30    5.3177   451.9    6.357      38.194
2015    2       23    21  36    5.3197   451.9    6.362      38.194
2015    2       23    21  41    5.3216   451.8    6.366      38.194
2015    2       23    21  46    5.3236   451.8    6.370      38.193
2015    2       23    21  51    5.3255   451.8    6.374      38.193
2015    2       23    21  56    5.3275   451.7    6.379      38.192
2015    2       23    22   2    5.3295   451.7    6.383      38.191
2015    2       23    22   7    5.3314   451.7    6.387      38.190
2015    2       23    22  12    5.3334   451.6    6.391      38.189
2015    2       23    22  17    5.3353   451.6    6.395      38.188
2015    2       23    22  23    5.3373   451.6    6.398      38.186
2015    2       23    22  28    5.3392   451.5    6.402      38.184
2015    2       23    22  33    5.3411   451.5    6.406      38.183
2015    2       23    22  38    5.3430   451.5    6.410      38.181
2015    2       23    22  43    5.3450   451.4    6.413      38.179
2015    2       23    22  49    5.3469   451.4    6.417      38.177
2015    2       23    22  54    5.3488   451.4    6.421      38.175
2015    2       23    22  59    5.3507   451.4    6.424      38.173
2015    2       23    23   4    5.3526   451.3    6.428      38.170
2015    2       23    23  10    5.3545   451.3    6.431      38.168
2015    2       23    23  15    5.3564   451.3    6.435      38.166
2015    2       23    23  20    5.3583   451.2    6.438      38.163
2015    2       23    23  25    5.3602   451.2    6.442      38.160
2015    2       23    23  31    5.3621   451.2    6.445      38.158
2015    2       23    23  36    5.3640   451.2    6.448      38.155
2015    2       23    23  41    5.3659   451.1    6.452      38.153
2015    2       23    23  46    5.3678   451.1    6.455      38.150
2015    2       23    23  51    5.3697   451.1    6.458      38.147
2015    2       23    23  57    5.3716   451.1    6.461      38.144
2015    2       24     0   2    5.3734   451.0    6.465      38.141
2015    2       24     0   7    5.3753   451.0    6.468      38.138
2015    2       24     0  12    5.3772   451.0    6.471      38.136
2015    2       24     0  18    5.3791   451.0    6.474      38.133
2015    2       24     0  23    5.3809   450.9    6.477      38.130
2015    2       24     0  28    5.3828   450.9    6.480      38.127
2015    2       24     0  33    5.3846   450.9    6.484      38.124
2015    2       24     0  39    5.3865   450.9    6.487      38.122
2015    2       24     0  44    5.3884   450.8    6.490      38.119
2015    2       24     0  49    5.3903   450.8    6.493      38.116
2015    2       24     0  54    5.3921   450.8    6.496      38.114
2015    2       24     0  59    5.3940   450.8    6.499      38.111
2015    2       24     1   5    5.3959   450.7    6.502      38.109
2015    2       24     1  10    5.3977   450.7    6.505      38.107
2015    2       24     1  15    5.3996   450.7    6.508      38.104
2015    2       24     1  20    5.4015   450.7    6.511      38.102
2015    2       24     1  26    5.4034   450.6    6.514      38.100
