year    month   day   hour  minute  B_enl V_enl   n_enl       T_enl
[year] [month] [day] [hour][minute] [nT]  [km/s]  [cm-3]      [kK]
2015    2        2     0   3    5.4290   631.7    3.020      57.510
2015    2        2     0   8    5.4262   631.6    3.020      57.467
2015    2        2     0  13    5.4234   631.4    3.019      57.424
2015    2        2     0  18    5.4207   631.3    3.018      57.380
2015    2        2     0  23    5.4178   631.2    3.018      57.336
2015    2        2     0  28    5.4151   631.1    3.017      57.291
2015    2        2     0  34    5.4124   631.0    3.016      57.246
2015    2        2     0  39    5.4097   630.8    3.015      57.200
2015    2        2     0  44    5.4071   630.7    3.014      57.153
2015    2        2     0  49    5.4044   630.6    3.013      57.106
2015    2        2     0  54    5.4017   630.5    3.012      57.059
2015    2        2     0  59    5.3991   630.3    3.011      57.011
2015    2        2     1   4    5.3965   630.2    3.010      56.962
2015    2        2     1   9    5.3939   630.1    3.009      56.914
2015    2        2     1  14    5.3913   630.0    3.008      56.864
2015    2        2     1  20    5.3887   629.8    3.007      56.815
2015    2        2     1  25    5.3861   629.7    3.006      56.765
2015    2        2     1  30    5.3835   629.6    3.005      56.715
2015    2        2     1  35    5.3809   629.4    3.004      56.664
2015    2        2     1  40    5.3784   629.3    3.003      56.614
2015    2        2     1  45    5.3758   629.2    3.001      56.562
2015    2        2     1  50    5.3732   629.1    3.000      56.511
2015    2        2     1  55    5.3706   628.9    2.999      56.459
2015    2        2     2   0    5.3680   628.8    2.998      56.407
2015    2        2     2   5    5.3655   628.7    2.996      56.354
2015    2        2     2  11    5.3628   628.5    2.995      56.302
2015    2        2     2  16    5.3601   628.4    2.994      56.249
2015    2        2     2  21    5.3576   628.3    2.992      56.195
2015    2        2     2  26    5.3548   628.1    2.991      56.142
2015    2        2     2  31    5.3522   628.0    2.990      56.088
2015    2        2     2  36    5.3495   627.9    2.988      56.034
2015    2        2     2  41    5.3468   627.7    2.987      55.980
2015    2        2     2  46    5.3441   627.6    2.985      55.926
2015    2        2     2  51    5.3414   627.5    2.984      55.871
2015    2        2     2  57    5.3387   627.3    2.983      55.817
2015    2        2     3   2    5.3360   627.2    2.981      55.762
2015    2        2     3   7    5.3332   627.0    2.980      55.708
2015    2        2     3  12    5.3304   626.9    2.978      55.653
2015    2        2     3  17    5.3277   626.8    2.977      55.599
2015    2        2     3  22    5.3249   626.6    2.976      55.544
2015    2        2     3  27    5.3221   626.5    2.974      55.490
2015    2        2     3  32    5.3194   626.3    2.973      55.436
2015    2        2     3  37    5.3166   626.2    2.972      55.383
2015    2        2     3  42    5.3138   626.0    2.971      55.329
2015    2        2     3  48    5.3110   625.9    2.969      55.277
2015    2        2     3  53    5.3082   625.7    2.968      55.224
2015    2        2     3  58    5.3054   625.6    2.967      55.172
2015    2        2     4   3    5.3026   625.4    2.966      55.121
2015    2        2     4   8    5.2998   625.3    2.965      55.070
2015    2        2     4  13    5.2969   625.1    2.964      55.020
2015    2        2     4  18    5.2942   625.0    2.964      54.970
2015    2        2     4  23    5.2913   624.8    2.963      54.921
2015    2        2     4  28    5.2885   624.7    2.962      54.873
2015    2        2     4  33    5.2857   624.5    2.962      54.825
2015    2        2     4  39    5.2829   624.4    2.961      54.778
2015    2        2     4  44    5.2801   624.2    2.961      54.731
2015    2        2     4  49    5.2772   624.1    2.960      54.685
2015    2        2     4  54    5.2744   623.9    2.960      54.639
2015    2        2     4  59    5.2716   623.8    2.960      54.595
2015    2        2     5   4    5.2687   623.6    2.960      54.550
2015    2        2     5   9    5.2659   623.5    2.960      54.506
2015    2        2     5  14    5.2630   623.3    2.960      54.461
2015    2        2     5  19    5.2601   623.2    2.960      54.417
2015    2        2     5  25    5.2572   623.0    2.960      54.372
2015    2        2     5  30    5.2543   622.9    2.960      54.328
2015    2        2     5  35    5.2514   622.7    2.960      54.282
2015    2        2     5  40    5.2485   622.6    2.960      54.237
2015    2        2     5  45    5.2455   622.4    2.960      54.191
2015    2        2     5  50    5.2426   622.2    2.960      54.144
2015    2        2     5  55    5.2396   622.1    2.960      54.097
2015    2        2     6   0    5.2367   621.9    2.960      54.049
2015    2        2     6   5    5.2337   621.7    2.960      54.001
2015    2        2     6  10    5.2307   621.6    2.960      53.952
2015    2        2     6  16    5.2277   621.4    2.960      53.902
2015    2        2     6  21    5.2248   621.2    2.960      53.851
2015    2        2     6  26    5.2218   621.0    2.960      53.800
2015    2        2     6  31    5.2188   620.9    2.960      53.748
2015    2        2     6  36    5.2158   620.7    2.960      53.696
2015    2        2     6  41    5.2129   620.5    2.960      53.644
2015    2        2     6  46    5.2100   620.3    2.959      53.590
2015    2        2     6  51    5.2070   620.1    2.959      53.537
2015    2        2     6  56    5.2042   620.0    2.959      53.483
2015    2        2     7   1    5.2013   619.8    2.959      53.429
2015    2        2     7   7    5.1984   619.6    2.959      53.374
2015    2        2     7  12    5.1956   619.4    2.959      53.319
2015    2        2     7  17    5.1927   619.2    2.959      53.264
2015    2        2     7  22    5.1900   619.0    2.959      53.209
2015    2        2     7  27    5.1872   618.8    2.959      53.153
2015    2        2     7  32    5.1845   618.6    2.959      53.098
2015    2        2     7  37    5.1818   618.4    2.959      53.042
2015    2        2     7  42    5.1791   618.2    2.958      52.987
2015    2        2     7  47    5.1765   618.0    2.958      52.931
2015    2        2     7  53    5.1739   617.9    2.958      52.876
2015    2        2     7  58    5.1713   617.7    2.958      52.821
2015    2        2     8   3    5.1688   617.5    2.958      52.766
2015    2        2     8   8    5.1662   617.3    2.959      52.711
2015    2        2     8  13    5.1638   617.1    2.959      52.656
2015    2        2     8  18    5.1613   616.9    2.959      52.601
2015    2        2     8  23    5.1588   616.7    2.959      52.547
2015    2        2     8  28    5.1564   616.5    2.959      52.492
2015    2        2     8  33    5.1540   616.3    2.959      52.438
2015    2        2     8  38    5.1516   616.1    2.959      52.384
2015    2        2     8  44    5.1492   615.9    2.959      52.330
2015    2        2     8  49    5.1469   615.7    2.959      52.277
2015    2        2     8  54    5.1444   615.5    2.959      52.224
2015    2        2     8  59    5.1420   615.4    2.959      52.171
2015    2        2     9   4    5.1396   615.2    2.959      52.118
2015    2        2     9   9    5.1372   615.0    2.959      52.065
2015    2        2     9  14    5.1348   614.8    2.959      52.012
2015    2        2     9  19    5.1323   614.6    2.959      51.960
2015    2        2     9  24    5.1299   614.4    2.959      51.907
2015    2        2     9  30    5.1274   614.2    2.959      51.854
2015    2        2     9  35    5.1249   614.1    2.959      51.800
2015    2        2     9  40    5.1224   613.9    2.959      51.747
2015    2        2     9  45    5.1198   613.7    2.959      51.692
2015    2        2     9  50    5.1173   613.5    2.959      51.638
2015    2        2     9  55    5.1147   613.3    2.958      51.582
2015    2        2    10   0    5.1122   613.2    2.958      51.526
2015    2        2    10   5    5.1096   613.0    2.958      51.470
2015    2        2    10  10    5.1070   612.8    2.957      51.413
2015    2        2    10  15    5.1043   612.6    2.957      51.356
2015    2        2    10  21    5.1017   612.4    2.956      51.298
2015    2        2    10  26    5.0991   612.2    2.956      51.240
2015    2        2    10  31    5.0964   612.1    2.955      51.181
2015    2        2    10  36    5.0937   611.9    2.955      51.122
2015    2        2    10  41    5.0910   611.7    2.954      51.063
2015    2        2    10  46    5.0883   611.5    2.953      51.003
2015    2        2    10  51    5.0855   611.3    2.953      50.943
2015    2        2    10  56    5.0828   611.1    2.952      50.882
2015    2        2    11   1    5.0801   611.0    2.951      50.821
2015    2        2    11   6    5.0773   610.8    2.951      50.760
2015    2        2    11  12    5.0745   610.6    2.950      50.699
2015    2        2    11  17    5.0718   610.4    2.949      50.638
2015    2        2    11  22    5.0690   610.2    2.949      50.576
2015    2        2    11  27    5.0662   610.0    2.948      50.515
2015    2        2    11  32    5.0634   609.8    2.947      50.453
2015    2        2    11  37    5.0606   609.6    2.946      50.391
2015    2        2    11  42    5.0578   609.4    2.946      50.330
2015    2        2    11  47    5.0550   609.2    2.945      50.268
2015    2        2    11  52    5.0522   609.0    2.944      50.206
2015    2        2    11  58    5.0494   608.8    2.944      50.144
2015    2        2    12   3    5.0466   608.6    2.943      50.082
2015    2        2    12   8    5.0437   608.4    2.942      50.020
2015    2        2    12  13    5.0409   608.2    2.942      49.958
2015    2        2    12  18    5.0381   608.0    2.941      49.897
2015    2        2    12  23    5.0353   607.8    2.940      49.835
2015    2        2    12  28    5.0324   607.6    2.940      49.773
2015    2        2    12  33    5.0296   607.4    2.939      49.711
2015    2        2    12  38    5.0268   607.2    2.938      49.649
2015    2        2    12  43    5.0239   607.0    2.938      49.587
2015    2        2    12  49    5.0211   606.8    2.937      49.524
2015    2        2    12  54    5.0182   606.6    2.937      49.462
2015    2        2    12  59    5.0154   606.3    2.936      49.399
2015    2        2    13   4    5.0126   606.1    2.935      49.336
2015    2        2    13   9    5.0098   605.9    2.935      49.273
2015    2        2    13  14    5.0070   605.7    2.934      49.209
2015    2        2    13  19    5.0042   605.5    2.934      49.145
2015    2        2    13  24    5.0014   605.2    2.933      49.081
2015    2        2    13  29    4.9986   605.0    2.932      49.017
2015    2        2    13  35    4.9958   604.8    2.932      48.952
2015    2        2    13  40    4.9930   604.5    2.931      48.886
2015    2        2    13  45    4.9903   604.3    2.931      48.820
2015    2        2    13  50    4.9875   604.1    2.930      48.754
2015    2        2    13  55    4.9848   603.8    2.930      48.688
2015    2        2    14   0    4.9821   603.6    2.929      48.621
2015    2        2    14   5    4.9794   603.4    2.929      48.554
2015    2        2    14  10    4.9767   603.1    2.928      48.487
2015    2        2    14  15    4.9741   602.9    2.928      48.420
2015    2        2    14  20    4.9714   602.6    2.927      48.353
2015    2        2    14  26    4.9688   602.4    2.927      48.285
2015    2        2    14  31    4.9662   602.1    2.927      48.218
2015    2        2    14  36    4.9636   601.9    2.926      48.151
2015    2        2    14  41    4.9610   601.6    2.926      48.084
2015    2        2    14  46    4.9585   601.4    2.926      48.017
2015    2        2    14  51    4.9560   601.1    2.926      47.950
2015    2        2    14  56    4.9535   600.9    2.926      47.884
2015    2        2    15   1    4.9510   600.6    2.926      47.818
2015    2        2    15   6    4.9486   600.4    2.926      47.753
2015    2        2    15  11    4.9461   600.1    2.926      47.688
2015    2        2    15  17    4.9437   599.9    2.926      47.623
2015    2        2    15  22    4.9413   599.6    2.926      47.559
2015    2        2    15  27    4.9389   599.4    2.926      47.495
2015    2        2    15  32    4.9366   599.1    2.926      47.432
2015    2        2    15  37    4.9342   598.9    2.927      47.370
2015    2        2    15  42    4.9319   598.6    2.927      47.308
2015    2        2    15  47    4.9295   598.4    2.927      47.247
2015    2        2    15  52    4.9272   598.1    2.928      47.186
2015    2        2    15  57    4.9249   597.9    2.929      47.126
2015    2        2    16   3    4.9226   597.6    2.929      47.067
2015    2        2    16   8    4.9203   597.4    2.930      47.009
2015    2        2    16  13    4.9179   597.1    2.931      46.951
2015    2        2    16  18    4.9156   596.9    2.932      46.894
2015    2        2    16  23    4.9132   596.7    2.933      46.837
2015    2        2    16  28    4.9109   596.4    2.933      46.782
2015    2        2    16  33    4.9085   596.2    2.934      46.726
2015    2        2    16  38    4.9061   596.0    2.935      46.670
2015    2        2    16  43    4.9037   595.7    2.936      46.615
2015    2        2    16  48    4.9012   595.5    2.937      46.560
2015    2        2    16  54    4.8987   595.3    2.938      46.505
2015    2        2    16  59    4.8963   595.0    2.939      46.450
2015    2        2    17   4    4.8938   594.8    2.940      46.394
2015    2        2    17   9    4.8912   594.6    2.941      46.338
2015    2        2    17  14    4.8887   594.3    2.942      46.282
2015    2        2    17  19    4.8861   594.1    2.943      46.226
2015    2        2    17  24    4.8836   593.9    2.944      46.169
2015    2        2    17  29    4.8809   593.6    2.945      46.112
2015    2        2    17  34    4.8784   593.4    2.946      46.054
2015    2        2    17  39    4.8757   593.2    2.947      45.997
2015    2        2    17  45    4.8731   592.9    2.947      45.939
2015    2        2    17  50    4.8704   592.7    2.948      45.881
2015    2        2    17  55    4.8678   592.5    2.949      45.822
2015    2        2    18   0    4.8651   592.2    2.950      45.763
2015    2        2    18   5    4.8624   592.0    2.951      45.704
2015    2        2    18  10    4.8598   591.7    2.951      45.645
2015    2        2    18  15    4.8571   591.5    2.952      45.585
2015    2        2    18  20    4.8544   591.3    2.953      45.525
2015    2        2    18  25    4.8517   591.0    2.953      45.465
2015    2        2    18  31    4.8490   590.8    2.954      45.405
2015    2        2    18  36    4.8463   590.5    2.955      45.344
2015    2        2    18  41    4.8436   590.3    2.955      45.284
2015    2        2    18  46    4.8409   590.0    2.956      45.223
2015    2        2    18  51    4.8383   589.8    2.956      45.162
2015    2        2    18  56    4.8356   589.6    2.957      45.100
2015    2        2    19   1    4.8329   589.3    2.957      45.039
2015    2        2    19   6    4.8303   589.1    2.957      44.978
2015    2        2    19  11    4.8276   588.8    2.958      44.916
2015    2        2    19  16    4.8250   588.6    2.958      44.855
2015    2        2    19  22    4.8223   588.3    2.958      44.793
2015    2        2    19  27    4.8197   588.1    2.959      44.732
2015    2        2    19  32    4.8170   587.8    2.959      44.670
2015    2        2    19  37    4.8145   587.5    2.959      44.609
2015    2        2    19  42    4.8118   587.3    2.959      44.547
2015    2        2    19  47    4.8093   587.0    2.959      44.485
2015    2        2    19  52    4.8068   586.8    2.959      44.423
2015    2        2    19  57    4.8042   586.5    2.959      44.361
2015    2        2    20   2    4.8016   586.3    2.959      44.298
2015    2        2    20   8    4.7991   586.0    2.959      44.236
2015    2        2    20  13    4.7967   585.7    2.959      44.173
2015    2        2    20  18    4.7942   585.5    2.959      44.110
2015    2        2    20  23    4.7916   585.2    2.959      44.047
2015    2        2    20  28    4.7892   584.9    2.959      43.984
2015    2        2    20  33    4.7867   584.7    2.959      43.920
2015    2        2    20  38    4.7843   584.4    2.959      43.857
2015    2        2    20  43    4.7820   584.1    2.959      43.793
2015    2        2    20  48    4.7795   583.9    2.959      43.729
2015    2        2    20  53    4.7772   583.6    2.959      43.665
2015    2        2    20  59    4.7748   583.3    2.959      43.601
2015    2        2    21   4    4.7725   583.0    2.959      43.537
2015    2        2    21   9    4.7703   582.8    2.959      43.473
2015    2        2    21  14    4.7680   582.5    2.959      43.409
2015    2        2    21  19    4.7657   582.2    2.959      43.345
2015    2        2    21  24    4.7633   582.0    2.959      43.281
2015    2        2    21  29    4.7611   581.7    2.959      43.218
2015    2        2    21  34    4.7589   581.4    2.959      43.154
2015    2        2    21  39    4.7566   581.1    2.959      43.091
2015    2        2    21  44    4.7544   580.8    2.959      43.028
2015    2        2    21  50    4.7522   580.6    2.959      42.965
2015    2        2    21  55    4.7500   580.3    2.959      42.902
2015    2        2    22   0    4.7478   580.0    2.959      42.839
2015    2        2    22   5    4.7457   579.7    2.960      42.776
2015    2        2    22  10    4.7435   579.4    2.960      42.713
2015    2        2    22  15    4.7413   579.2    2.960      42.651
2015    2        2    22  20    4.7391   578.9    2.960      42.588
2015    2        2    22  25    4.7369   578.6    2.961      42.525
2015    2        2    22  30    4.7348   578.3    2.961      42.462
2015    2        2    22  36    4.7326   578.0    2.961      42.399
2015    2        2    22  41    4.7304   577.7    2.962      42.336
2015    2        2    22  46    4.7282   577.5    2.962      42.273
2015    2        2    22  51    4.7259   577.2    2.962      42.210
2015    2        2    22  56    4.7237   576.9    2.963      42.147
2015    2        2    23   1    4.7215   576.6    2.963      42.083
2015    2        2    23   6    4.7193   576.3    2.964      42.019
2015    2        2    23  11    4.7171   576.0    2.964      41.956
2015    2        2    23  16    4.7149   575.7    2.965      41.892
2015    2        2    23  21    4.7126   575.4    2.965      41.828
2015    2        2    23  27    4.7103   575.1    2.966      41.765
2015    2        2    23  32    4.7081   574.8    2.966      41.701
2015    2        2    23  37    4.7059   574.5    2.967      41.637
2015    2        2    23  42    4.7036   574.2    2.968      41.574
2015    2        2    23  47    4.7013   573.9    2.968      41.510
2015    2        2    23  52    4.6991   573.6    2.969      41.447
2015    2        2    23  57    4.6968   573.3    2.970      41.383
2015    2        3     0   2    4.6946   573.0    2.971      41.321
2015    2        3     0   7    4.6923   572.7    2.972      41.258
2015    2        3     0  13    4.6901   572.4    2.973      41.195
2015    2        3     0  18    4.6878   572.1    2.974      41.133
2015    2        3     0  23    4.6856   571.8    2.975      41.071
2015    2        3     0  28    4.6834   571.5    2.976      41.009
2015    2        3     0  33    4.6811   571.2    2.978      40.947
2015    2        3     0  38    4.6789   570.9    2.979      40.886
2015    2        3     0  43    4.6767   570.6    2.980      40.825
2015    2        3     0  48    4.6745   570.3    2.982      40.765
