year    month   day   hour  minute  B_enl V_enl   n_enl       T_enl
[year] [month] [day] [hour][minute] [nT]  [km/s]  [cm-3]      [kK]
2015    2       13     0   0    3.9722   455.8    3.812      40.529
2015    2       13     0   5    3.9723   455.5    3.817      40.488
2015    2       13     0  11    3.9725   455.2    3.821      40.447
2015    2       13     0  16    3.9729   454.9    3.825      40.406
2015    2       13     0  21    3.9731   454.6    3.830      40.365
2015    2       13     0  26    3.9734   454.3    3.834      40.325
2015    2       13     0  31    3.9738   454.0    3.839      40.285
2015    2       13     0  37    3.9739   453.6    3.843      40.246
2015    2       13     0  42    3.9743   453.3    3.848      40.207
2015    2       13     0  47    3.9748   453.0    3.853      40.169
2015    2       13     0  52    3.9752   452.7    3.858      40.131
2015    2       13     0  57    3.9759   452.4    3.863      40.094
2015    2       13     1   2    3.9764   452.1    3.868      40.058
2015    2       13     1   8    3.9770   451.8    3.873      40.022
2015    2       13     1  13    3.9774   451.5    3.878      39.987
2015    2       13     1  18    3.9783   451.2    3.884      39.952
2015    2       13     1  23    3.9789   450.9    3.889      39.918
2015    2       13     1  28    3.9796   450.6    3.895      39.884
2015    2       13     1  33    3.9804   450.3    3.901      39.851
2015    2       13     1  39    3.9812   450.0    3.906      39.819
2015    2       13     1  44    3.9820   449.7    3.912      39.787
2015    2       13     1  49    3.9829   449.4    3.918      39.756
2015    2       13     1  54    3.9838   449.1    3.924      39.725
2015    2       13     1  59    3.9845   448.8    3.930      39.695
2015    2       13     2   5    3.9857   448.5    3.936      39.665
2015    2       13     2  10    3.9866   448.2    3.942      39.636
2015    2       13     2  15    3.9877   447.9    3.949      39.607
2015    2       13     2  20    3.9887   447.6    3.955      39.578
2015    2       13     2  25    3.9898   447.3    3.961      39.550
2015    2       13     2  30    3.9909   447.0    3.968      39.522
2015    2       13     2  36    3.9920   446.7    3.974      39.494
2015    2       13     2  41    3.9930   446.4    3.980      39.467
2015    2       13     2  46    3.9944   446.1    3.987      39.440
2015    2       13     2  51    3.9956   445.8    3.993      39.413
2015    2       13     2  56    3.9966   445.5    4.000      39.386
2015    2       13     3   2    3.9978   445.2    4.006      39.359
2015    2       13     3   7    3.9994   445.0    4.013      39.332
2015    2       13     3  12    4.0007   444.7    4.019      39.306
2015    2       13     3  17    4.0020   444.4    4.025      39.279
2015    2       13     3  22    4.0033   444.1    4.032      39.252
2015    2       13     3  27    4.0047   443.8    4.038      39.225
2015    2       13     3  33    4.0061   443.5    4.045      39.199
2015    2       13     3  38    4.0075   443.2    4.051      39.172
2015    2       13     3  43    4.0090   443.0    4.057      39.145
2015    2       13     3  48    4.0104   442.7    4.064      39.118
2015    2       13     3  53    4.0119   442.4    4.070      39.091
2015    2       13     3  58    4.0134   442.1    4.076      39.064
2015    2       13     4   4    4.0150   441.8    4.082      39.037
2015    2       13     4   9    4.0166   441.5    4.089      39.010
2015    2       13     4  14    4.0182   441.2    4.095      38.983
2015    2       13     4  19    4.0198   441.0    4.101      38.956
2015    2       13     4  24    4.0215   440.7    4.107      38.928
2015    2       13     4  30    4.0232   440.4    4.113      38.901
2015    2       13     4  35    4.0249   440.1    4.119      38.874
2015    2       13     4  40    4.0267   439.8    4.126      38.847
2015    2       13     4  45    4.0283   439.6    4.132      38.820
2015    2       13     4  50    4.0304   439.3    4.138      38.792
2015    2       13     4  55    4.0323   439.0    4.144      38.765
2015    2       13     5   1    4.0342   438.7    4.150      38.738
2015    2       13     5   6    4.0359   438.5    4.156      38.711
2015    2       13     5  11    4.0382   438.2    4.162      38.684
2015    2       13     5  16    4.0402   437.9    4.168      38.657
2015    2       13     5  21    4.0423   437.6    4.175      38.630
2015    2       13     5  26    4.0441   437.4    4.181      38.604
2015    2       13     5  32    4.0465   437.1    4.187      38.577
2015    2       13     5  37    4.0485   436.8    4.193      38.550
2015    2       13     5  42    4.0509   436.6    4.199      38.524
2015    2       13     5  47    4.0532   436.3    4.205      38.498
2015    2       13     5  52    4.0555   436.0    4.212      38.471
2015    2       13     5  58    4.0575   435.8    4.218      38.445
2015    2       13     6   3    4.0601   435.5    4.224      38.419
2015    2       13     6   8    4.0625   435.3    4.231      38.393
2015    2       13     6  13    4.0649   435.0    4.237      38.367
2015    2       13     6  18    4.0673   434.7    4.243      38.342
2015    2       13     6  23    4.0698   434.5    4.250      38.316
2015    2       13     6  29    4.0723   434.2    4.256      38.291
2015    2       13     6  34    4.0748   434.0    4.263      38.266
2015    2       13     6  39    4.0773   433.7    4.269      38.241
2015    2       13     6  44    4.0796   433.5    4.276      38.216
2015    2       13     6  49    4.0822   433.2    4.283      38.192
2015    2       13     6  54    4.0848   432.9    4.289      38.167
2015    2       13     7   0    4.0876   432.7    4.296      38.143
2015    2       13     7   5    4.0903   432.4    4.303      38.119
2015    2       13     7  10    4.0929   432.2    4.310      38.096
2015    2       13     7  15    4.0956   431.9    4.317      38.072
2015    2       13     7  20    4.0983   431.7    4.324      38.049
2015    2       13     7  26    4.1010   431.4    4.331      38.026
2015    2       13     7  31    4.1038   431.2    4.338      38.003
2015    2       13     7  36    4.1065   431.0    4.345      37.980
2015    2       13     7  41    4.1093   430.7    4.352      37.958
2015    2       13     7  46    4.1119   430.5    4.359      37.936
2015    2       13     7  51    4.1147   430.2    4.366      37.914
2015    2       13     7  57    4.1175   430.0    4.374      37.893
2015    2       13     8   2    4.1207   429.7    4.381      37.872
2015    2       13     8   7    4.1233   429.5    4.389      37.852
2015    2       13     8  12    4.1265   429.3    4.397      37.831
2015    2       13     8  17    4.1292   429.0    4.404      37.812
2015    2       13     8  22    4.1321   428.8    4.412      37.792
2015    2       13     8  28    4.1354   428.5    4.420      37.773
2015    2       13     8  33    4.1382   428.3    4.428      37.755
2015    2       13     8  38    4.1415   428.1    4.436      37.736
2015    2       13     8  43    4.1445   427.8    4.444      37.719
2015    2       13     8  48    4.1476   427.6    4.453      37.702
2015    2       13     8  54    4.1508   427.4    4.461      37.685
2015    2       13     8  59    4.1537   427.1    4.469      37.669
2015    2       13     9   4    4.1568   426.9    4.478      37.653
2015    2       13     9   9    4.1603   426.7    4.487      37.638
2015    2       13     9  14    4.1636   426.5    4.495      37.623
2015    2       13     9  19    4.1666   426.2    4.504      37.609
2015    2       13     9  25    4.1699   426.0    4.513      37.595
2015    2       13     9  30    4.1735   425.8    4.522      37.582
2015    2       13     9  35    4.1766   425.6    4.531      37.569
2015    2       13     9  40    4.1800   425.3    4.540      37.557
2015    2       13     9  45    4.1834   425.1    4.550      37.545
2015    2       13     9  50    4.1869   424.9    4.559      37.534
2015    2       13     9  56    4.1904   424.7    4.569      37.523
2015    2       13    10   1    4.1939   424.5    4.578      37.513
2015    2       13    10   6    4.1977   424.2    4.588      37.503
2015    2       13    10  11    4.2010   424.0    4.597      37.493
2015    2       13    10  16    4.2048   423.8    4.607      37.484
2015    2       13    10  22    4.2085   423.6    4.617      37.476
2015    2       13    10  27    4.2121   423.4    4.627      37.468
2015    2       13    10  32    4.2158   423.2    4.637      37.460
2015    2       13    10  37    4.2195   423.0    4.647      37.452
2015    2       13    10  42    4.2232   422.8    4.657      37.445
2015    2       13    10  47    4.2270   422.6    4.667      37.438
2015    2       13    10  53    4.2307   422.4    4.677      37.431
2015    2       13    10  58    4.2343   422.2    4.687      37.424
2015    2       13    11   3    4.2381   422.0    4.697      37.418
2015    2       13    11   8    4.2419   421.8    4.707      37.412
2015    2       13    11  13    4.2457   421.6    4.717      37.406
2015    2       13    11  18    4.2498   421.4    4.727      37.400
2015    2       13    11  24    4.2535   421.2    4.737      37.394
2015    2       13    11  29    4.2573   421.0    4.747      37.388
2015    2       13    11  34    4.2615   420.8    4.757      37.383
2015    2       13    11  39    4.2654   420.6    4.767      37.377
2015    2       13    11  44    4.2691   420.4    4.777      37.372
2015    2       13    11  50    4.2733   420.2    4.787      37.367
2015    2       13    11  55    4.2773   420.0    4.797      37.361
2015    2       13    12   0    4.2813   419.8    4.807      37.356
2015    2       13    12   5    4.2851   419.6    4.817      37.350
2015    2       13    12  10    4.2891   419.5    4.827      37.345
2015    2       13    12  15    4.2931   419.3    4.837      37.340
2015    2       13    12  21    4.2972   419.1    4.847      37.334
2015    2       13    12  26    4.3013   418.9    4.856      37.329
2015    2       13    12  31    4.3054   418.7    4.866      37.324
2015    2       13    12  36    4.3095   418.5    4.876      37.319
2015    2       13    12  41    4.3138   418.4    4.885      37.313
2015    2       13    12  46    4.3179   418.2    4.895      37.308
2015    2       13    12  52    4.3221   418.0    4.904      37.303
2015    2       13    12  57    4.3261   417.8    4.914      37.297
2015    2       13    13   2    4.3305   417.6    4.923      37.292
2015    2       13    13   7    4.3345   417.5    4.932      37.286
2015    2       13    13  12    4.3387   417.3    4.942      37.281
2015    2       13    13  17    4.3430   417.1    4.951      37.275
2015    2       13    13  23    4.3474   416.9    4.960      37.270
2015    2       13    13  28    4.3517   416.8    4.970      37.264
2015    2       13    13  33    4.3560   416.6    4.979      37.259
2015    2       13    13  38    4.3601   416.4    4.988      37.253
2015    2       13    13  43    4.3644   416.2    4.997      37.248
2015    2       13    13  49    4.3689   416.1    5.007      37.242
2015    2       13    13  54    4.3731   415.9    5.016      37.237
2015    2       13    13  59    4.3775   415.7    5.025      37.232
2015    2       13    14   4    4.3820   415.6    5.034      37.227
2015    2       13    14   9    4.3862   415.4    5.043      37.221
2015    2       13    14  14    4.3906   415.2    5.053      37.216
2015    2       13    14  20    4.3951   415.1    5.062      37.211
2015    2       13    14  25    4.3996   414.9    5.071      37.207
2015    2       13    14  30    4.4039   414.7    5.080      37.202
2015    2       13    14  35    4.4084   414.6    5.090      37.197
2015    2       13    14  40    4.4130   414.4    5.099      37.193
2015    2       13    14  45    4.4175   414.3    5.108      37.189
2015    2       13    14  51    4.4220   414.1    5.118      37.185
2015    2       13    14  56    4.4265   413.9    5.127      37.182
2015    2       13    15   1    4.4309   413.8    5.137      37.178
2015    2       13    15   6    4.4356   413.6    5.146      37.175
2015    2       13    15  11    4.4401   413.5    5.156      37.172
2015    2       13    15  17    4.4445   413.3    5.165      37.170
2015    2       13    15  22    4.4491   413.2    5.175      37.167
2015    2       13    15  27    4.4537   413.0    5.185      37.166
2015    2       13    15  32    4.4585   412.9    5.195      37.164
2015    2       13    15  37    4.4630   412.7    5.205      37.163
2015    2       13    15  42    4.4678   412.6    5.215      37.162
2015    2       13    15  48    4.4723   412.4    5.225      37.161
2015    2       13    15  53    4.4771   412.3    5.235      37.161
2015    2       13    15  58    4.4818   412.1    5.245      37.161
2015    2       13    16   3    4.4864   412.0    5.256      37.162
2015    2       13    16   8    4.4911   411.8    5.266      37.163
2015    2       13    16  13    4.4960   411.7    5.277      37.165
2015    2       13    16  19    4.5006   411.6    5.287      37.166
2015    2       13    16  24    4.5054   411.4    5.298      37.169
2015    2       13    16  29    4.5102   411.3    5.309      37.171
2015    2       13    16  34    4.5150   411.1    5.319      37.174
2015    2       13    16  39    4.5198   411.0    5.330      37.178
2015    2       13    16  45    4.5248   410.9    5.341      37.181
2015    2       13    16  50    4.5296   410.7    5.352      37.185
2015    2       13    16  55    4.5346   410.6    5.364      37.190
2015    2       13    17   0    4.5395   410.5    5.375      37.195
2015    2       13    17   5    4.5444   410.4    5.386      37.200
2015    2       13    17  10    4.5493   410.2    5.397      37.206
2015    2       13    17  16    4.5541   410.1    5.409      37.212
2015    2       13    17  21    4.5591   410.0    5.420      37.218
2015    2       13    17  26    4.5642   409.8    5.432      37.224
2015    2       13    17  31    4.5691   409.7    5.444      37.231
2015    2       13    17  36    4.5742   409.6    5.455      37.238
2015    2       13    17  41    4.5792   409.5    5.467      37.246
2015    2       13    17  47    4.5841   409.4    5.479      37.254
2015    2       13    17  52    4.5893   409.2    5.490      37.262
2015    2       13    17  57    4.5943   409.1    5.502      37.270
2015    2       13    18   2    4.5994   409.0    5.514      37.278
2015    2       13    18   7    4.6044   408.9    5.526      37.287
2015    2       13    18  13    4.6096   408.8    5.538      37.296
2015    2       13    18  18    4.6147   408.7    5.550      37.305
2015    2       13    18  23    4.6198   408.5    5.562      37.314
2015    2       13    18  28    4.6249   408.4    5.574      37.324
2015    2       13    18  33    4.6301   408.3    5.586      37.333
2015    2       13    18  38    4.6354   408.2    5.598      37.343
2015    2       13    18  44    4.6405   408.1    5.610      37.353
2015    2       13    18  49    4.6457   408.0    5.622      37.363
2015    2       13    18  54    4.6509   407.9    5.634      37.373
2015    2       13    18  59    4.6562   407.8    5.645      37.383
2015    2       13    19   4    4.6615   407.7    5.657      37.394
2015    2       13    19   9    4.6667   407.5    5.669      37.404
2015    2       13    19  15    4.6720   407.4    5.681      37.415
2015    2       13    19  20    4.6775   407.3    5.693      37.425
2015    2       13    19  25    4.6828   407.2    5.705      37.436
2015    2       13    19  30    4.6881   407.1    5.716      37.447
2015    2       13    19  35    4.6935   407.0    5.728      37.457
2015    2       13    19  41    4.6988   406.9    5.740      37.468
2015    2       13    19  46    4.7041   406.8    5.752      37.479
2015    2       13    19  51    4.7096   406.7    5.763      37.490
2015    2       13    19  56    4.7151   406.6    5.775      37.501
2015    2       13    20   1    4.7204   406.5    5.786      37.512
2015    2       13    20   6    4.7259   406.4    5.798      37.523
2015    2       13    20  12    4.7313   406.3    5.809      37.534
2015    2       13    20  17    4.7368   406.2    5.821      37.546
2015    2       13    20  22    4.7423   406.1    5.832      37.557
2015    2       13    20  27    4.7478   406.0    5.844      37.568
2015    2       13    20  32    4.7535   405.9    5.855      37.580
2015    2       13    20  37    4.7590   405.8    5.866      37.591
2015    2       13    20  43    4.7646   405.7    5.878      37.602
2015    2       13    20  48    4.7702   405.6    5.889      37.614
2015    2       13    20  53    4.7757   405.6    5.900      37.626
2015    2       13    20  58    4.7812   405.5    5.911      37.637
2015    2       13    21   3    4.7868   405.4    5.923      37.648
2015    2       13    21   9    4.7924   405.3    5.934      37.660
2015    2       13    21  14    4.7982   405.2    5.945      37.672
2015    2       13    21  19    4.8038   405.1    5.956      37.683
2015    2       13    21  24    4.8095   405.0    5.967      37.695
2015    2       13    21  29    4.8150   404.9    5.978      37.707
2015    2       13    21  34    4.8206   404.8    5.990      37.719
2015    2       13    21  40    4.8263   404.8    6.001      37.731
2015    2       13    21  45    4.8320   404.7    6.012      37.743
2015    2       13    21  50    4.8377   404.6    6.023      37.755
2015    2       13    21  55    4.8434   404.5    6.034      37.767
2015    2       13    22   0    4.8491   404.4    6.045      37.779
2015    2       13    22   5    4.8550   404.3    6.056      37.792
2015    2       13    22  11    4.8606   404.2    6.068      37.804
2015    2       13    22  16    4.8665   404.2    6.079      37.817
2015    2       13    22  21    4.8721   404.1    6.090      37.830
2015    2       13    22  26    4.8779   404.0    6.101      37.843
2015    2       13    22  31    4.8838   403.9    6.113      37.856
2015    2       13    22  37    4.8894   403.8    6.124      37.869
2015    2       13    22  42    4.8953   403.8    6.135      37.883
2015    2       13    22  47    4.9012   403.7    6.147      37.896
2015    2       13    22  52    4.9069   403.6    6.158      37.910
2015    2       13    22  57    4.9128   403.5    6.169      37.924
2015    2       13    23   2    4.9185   403.5    6.181      37.938
2015    2       13    23   8    4.9244   403.4    6.192      37.953
2015    2       13    23  13    4.9302   403.3    6.204      37.968
2015    2       13    23  18    4.9362   403.3    6.215      37.982
2015    2       13    23  23    4.9420   403.2    6.227      37.998
2015    2       13    23  28    4.9480   403.1    6.238      38.013
2015    2       13    23  33    4.9539   403.0    6.250      38.029
2015    2       13    23  39    4.9598   403.0    6.262      38.045
2015    2       13    23  44    4.9656   402.9    6.273      38.061
2015    2       13    23  49    4.9715   402.9    6.285      38.077
2015    2       13    23  54    4.9774   402.8    6.296      38.094
2015    2       13    23  59    4.9835   402.7    6.308      38.111
2015    2       14     0   5    4.9894   402.7    6.320      38.128
2015    2       14     0  10    4.9954   402.6    6.331      38.145
2015    2       14     0  15    5.0012   402.5    6.343      38.163
2015    2       14     0  20    5.0072   402.5    6.354      38.180
2015    2       14     0  25    5.0131   402.4    6.366      38.197
2015    2       14     0  30    5.0191   402.4    6.377      38.215
2015    2       14     0  36    5.0251   402.3    6.389      38.233
2015    2       14     0  41    5.0311   402.3    6.400      38.250
2015    2       14     0  46    5.0371   402.2    6.411      38.268
2015    2       14     0  51    5.0430   402.1    6.423      38.286
2015    2       14     0  56    5.0489   402.1    6.434      38.303
2015    2       14     1   1    5.0550   402.0    6.445      38.321
2015    2       14     1   7    5.0610   402.0    6.457      38.338
