year    month   day   hour  minute  B_enl V_enl   n_enl       T_enl
[year] [month] [day] [hour][minute] [nT]  [km/s]  [cm-3]      [kK]
2015    2       28     0   5    5.1815   657.4    2.834      61.572
2015    2       28     0  10    5.1795   657.3    2.834      61.539
2015    2       28     0  15    5.1774   657.2    2.833      61.506
2015    2       28     0  20    5.1753   657.1    2.832      61.474
2015    2       28     0  25    5.1733   657.0    2.832      61.441
2015    2       28     0  31    5.1713   656.9    2.831      61.409
2015    2       28     0  36    5.1692   656.8    2.830      61.377
2015    2       28     0  41    5.1671   656.7    2.830      61.345
2015    2       28     0  46    5.1651   656.6    2.829      61.313
2015    2       28     0  51    5.1631   656.5    2.828      61.281
2015    2       28     0  57    5.1611   656.4    2.828      61.250
2015    2       28     1   2    5.1590   656.2    2.827      61.218
2015    2       28     1   7    5.1570   656.1    2.827      61.187
2015    2       28     1  12    5.1550   656.0    2.826      61.156
2015    2       28     1  17    5.1529   655.9    2.825      61.124
2015    2       28     1  23    5.1509   655.8    2.825      61.093
2015    2       28     1  28    5.1489   655.7    2.824      61.063
2015    2       28     1  33    5.1469   655.6    2.824      61.032
2015    2       28     1  38    5.1449   655.5    2.823      61.001
2015    2       28     1  43    5.1429   655.4    2.823      60.971
2015    2       28     1  49    5.1408   655.3    2.822      60.941
2015    2       28     1  54    5.1388   655.1    2.822      60.910
2015    2       28     1  59    5.1368   655.0    2.821      60.880
2015    2       28     2   4    5.1348   654.9    2.821      60.850
2015    2       28     2  10    5.1328   654.8    2.820      60.821
2015    2       28     2  15    5.1308   654.7    2.820      60.791
2015    2       28     2  20    5.1288   654.6    2.820      60.762
2015    2       28     2  25    5.1268   654.5    2.819      60.733
2015    2       28     2  30    5.1248   654.3    2.819      60.704
2015    2       28     2  36    5.1228   654.2    2.818      60.675
2015    2       28     2  41    5.1208   654.1    2.818      60.646
2015    2       28     2  46    5.1188   654.0    2.818      60.618
2015    2       28     2  51    5.1168   653.9    2.818      60.589
2015    2       28     2  56    5.1148   653.8    2.817      60.561
2015    2       28     3   2    5.1128   653.7    2.817      60.533
2015    2       28     3   7    5.1107   653.5    2.817      60.504
2015    2       28     3  12    5.1087   653.4    2.817      60.476
2015    2       28     3  17    5.1067   653.3    2.817      60.448
2015    2       28     3  22    5.1046   653.2    2.817      60.420
2015    2       28     3  28    5.1026   653.1    2.816      60.392
2015    2       28     3  33    5.1005   653.0    2.816      60.364
2015    2       28     3  38    5.0984   652.9    2.816      60.336
2015    2       28     3  43    5.0964   652.7    2.816      60.308
2015    2       28     3  48    5.0943   652.6    2.816      60.280
2015    2       28     3  54    5.0922   652.5    2.816      60.252
2015    2       28     3  59    5.0901   652.4    2.816      60.223
2015    2       28     4   4    5.0880   652.3    2.816      60.195
2015    2       28     4   9    5.0859   652.2    2.816      60.166
2015    2       28     4  14    5.0837   652.0    2.816      60.138
2015    2       28     4  20    5.0816   651.9    2.816      60.109
2015    2       28     4  25    5.0794   651.8    2.816      60.080
2015    2       28     4  30    5.0773   651.7    2.816      60.050
2015    2       28     4  35    5.0751   651.6    2.816      60.021
2015    2       28     4  40    5.0729   651.4    2.816      59.991
2015    2       28     4  46    5.0707   651.3    2.816      59.961
2015    2       28     4  51    5.0685   651.2    2.816      59.930
2015    2       28     4  56    5.0663   651.1    2.815      59.899
2015    2       28     5   1    5.0641   650.9    2.815      59.868
2015    2       28     5   6    5.0619   650.8    2.815      59.837
2015    2       28     5  12    5.0597   650.7    2.815      59.805
2015    2       28     5  17    5.0575   650.6    2.815      59.773
2015    2       28     5  22    5.0553   650.4    2.815      59.740
2015    2       28     5  27    5.0530   650.3    2.815      59.707
2015    2       28     5  32    5.0508   650.2    2.815      59.674
2015    2       28     5  38    5.0486   650.0    2.815      59.641
2015    2       28     5  43    5.0464   649.9    2.815      59.607
2015    2       28     5  48    5.0441   649.8    2.815      59.574
2015    2       28     5  53    5.0419   649.6    2.815      59.539
2015    2       28     5  58    5.0397   649.5    2.814      59.505
2015    2       28     6   4    5.0375   649.4    2.814      59.471
2015    2       28     6   9    5.0353   649.2    2.814      59.437
2015    2       28     6  14    5.0331   649.1    2.814      59.402
2015    2       28     6  19    5.0309   649.0    2.814      59.367
2015    2       28     6  24    5.0287   648.8    2.814      59.333
2015    2       28     6  30    5.0265   648.7    2.814      59.298
2015    2       28     6  35    5.0243   648.5    2.814      59.263
2015    2       28     6  40    5.0221   648.4    2.814      59.227
2015    2       28     6  45    5.0200   648.3    2.814      59.192
2015    2       28     6  50    5.0178   648.1    2.814      59.157
2015    2       28     6  56    5.0157   648.0    2.814      59.121
2015    2       28     7   1    5.0135   647.8    2.814      59.085
2015    2       28     7   6    5.0114   647.7    2.814      59.049
2015    2       28     7  11    5.0093   647.5    2.814      59.013
2015    2       28     7  16    5.0072   647.4    2.814      58.977
2015    2       28     7  22    5.0050   647.3    2.814      58.941
2015    2       28     7  27    5.0029   647.1    2.814      58.905
2015    2       28     7  32    5.0009   647.0    2.814      58.869
2015    2       28     7  37    4.9987   646.8    2.814      58.833
2015    2       28     7  42    4.9967   646.7    2.814      58.797
2015    2       28     7  48    4.9946   646.5    2.814      58.761
2015    2       28     7  53    4.9925   646.4    2.813      58.725
2015    2       28     7  58    4.9904   646.2    2.813      58.689
2015    2       28     8   3    4.9883   646.1    2.813      58.653
2015    2       28     8   8    4.9863   645.9    2.813      58.616
2015    2       28     8  14    4.9842   645.8    2.813      58.580
2015    2       28     8  19    4.9822   645.6    2.813      58.543
2015    2       28     8  24    4.9801   645.5    2.812      58.506
2015    2       28     8  29    4.9780   645.3    2.812      58.468
2015    2       28     8  35    4.9760   645.2    2.812      58.431
2015    2       28     8  40    4.9739   645.0    2.812      58.393
2015    2       28     8  45    4.9718   644.9    2.811      58.356
2015    2       28     8  50    4.9698   644.7    2.811      58.317
2015    2       28     8  55    4.9678   644.6    2.811      58.279
2015    2       28     9   1    4.9657   644.4    2.810      58.240
2015    2       28     9   6    4.9636   644.3    2.810      58.202
2015    2       28     9  11    4.9615   644.1    2.809      58.162
2015    2       28     9  16    4.9595   644.0    2.809      58.123
2015    2       28     9  21    4.9574   643.8    2.809      58.083
2015    2       28     9  27    4.9554   643.7    2.808      58.044
2015    2       28     9  32    4.9533   643.5    2.808      58.003
2015    2       28     9  37    4.9512   643.4    2.807      57.963
2015    2       28     9  42    4.9492   643.2    2.807      57.922
2015    2       28     9  48    4.9470   643.0    2.806      57.881
2015    2       28     9  53    4.9449   642.9    2.806      57.840
2015    2       28     9  58    4.9429   642.7    2.805      57.799
2015    2       28    10   3    4.9408   642.6    2.805      57.757
2015    2       28    10   8    4.9387   642.4    2.804      57.715
2015    2       28    10  14    4.9365   642.3    2.804      57.673
2015    2       28    10  19    4.9344   642.1    2.803      57.631
2015    2       28    10  24    4.9323   641.9    2.803      57.589
2015    2       28    10  29    4.9302   641.8    2.802      57.546
2015    2       28    10  34    4.9280   641.6    2.802      57.503
2015    2       28    10  40    4.9259   641.5    2.801      57.461
2015    2       28    10  45    4.9237   641.3    2.800      57.418
2015    2       28    10  50    4.9215   641.1    2.800      57.375
2015    2       28    10  55    4.9193   641.0    2.799      57.331
2015    2       28    11   0    4.9172   640.8    2.799      57.288
2015    2       28    11   6    4.9150   640.7    2.798      57.245
2015    2       28    11  11    4.9128   640.5    2.798      57.201
2015    2       28    11  16    4.9106   640.3    2.797      57.157
2015    2       28    11  21    4.9084   640.2    2.797      57.114
2015    2       28    11  26    4.9061   640.0    2.796      57.070
2015    2       28    11  32    4.9039   639.9    2.796      57.026
2015    2       28    11  37    4.9016   639.7    2.795      56.981
2015    2       28    11  42    4.8994   639.5    2.795      56.937
2015    2       28    11  47    4.8971   639.4    2.795      56.892
2015    2       28    11  52    4.8948   639.2    2.794      56.848
2015    2       28    11  58    4.8926   639.0    2.794      56.803
2015    2       28    12   3    4.8903   638.9    2.793      56.758
2015    2       28    12   8    4.8880   638.7    2.793      56.713
2015    2       28    12  13    4.8857   638.5    2.792      56.667
2015    2       28    12  18    4.8834   638.4    2.792      56.622
2015    2       28    12  24    4.8811   638.2    2.792      56.576
2015    2       28    12  29    4.8788   638.0    2.791      56.531
2015    2       28    12  34    4.8765   637.8    2.791      56.485
2015    2       28    12  39    4.8742   637.7    2.791      56.439
2015    2       28    12  44    4.8719   637.5    2.790      56.394
2015    2       28    12  50    4.8695   637.3    2.790      56.348
2015    2       28    12  55    4.8672   637.1    2.790      56.302
2015    2       28    13   0    4.8649   636.9    2.790      56.257
2015    2       28    13   5    4.8626   636.8    2.789      56.212
2015    2       28    13  10    4.8603   636.6    2.789      56.167
2015    2       28    13  16    4.8580   636.4    2.789      56.122
2015    2       28    13  21    4.8557   636.2    2.789      56.078
2015    2       28    13  26    4.8535   636.0    2.789      56.034
2015    2       28    13  31    4.8512   635.8    2.789      55.990
2015    2       28    13  36    4.8489   635.6    2.790      55.947
2015    2       28    13  42    4.8467   635.5    2.790      55.904
2015    2       28    13  47    4.8444   635.3    2.790      55.862
2015    2       28    13  52    4.8422   635.1    2.790      55.820
2015    2       28    13  57    4.8400   634.9    2.791      55.778
2015    2       28    14   2    4.8378   634.7    2.791      55.737
2015    2       28    14   8    4.8355   634.5    2.791      55.697
2015    2       28    14  13    4.8333   634.3    2.792      55.657
2015    2       28    14  18    4.8312   634.1    2.792      55.617
2015    2       28    14  23    4.8290   633.9    2.793      55.577
2015    2       28    14  28    4.8268   633.7    2.794      55.538
2015    2       28    14  33    4.8247   633.5    2.794      55.499
2015    2       28    14  39    4.8225   633.3    2.795      55.461
2015    2       28    14  44    4.8204   633.1    2.796      55.422
2015    2       28    14  49    4.8182   632.9    2.796      55.384
2015    2       28    14  54    4.8161   632.7    2.797      55.346
2015    2       28    14  59    4.8140   632.5    2.798      55.308
2015    2       28    15   5    4.8119   632.3    2.799      55.270
2015    2       28    15  10    4.8098   632.1    2.799      55.232
2015    2       28    15  15    4.8076   631.9    2.800      55.194
2015    2       28    15  20    4.8056   631.7    2.801      55.155
2015    2       28    15  25    4.8034   631.5    2.802      55.116
2015    2       28    15  31    4.8013   631.3    2.802      55.077
2015    2       28    15  36    4.7992   631.1    2.803      55.036
2015    2       28    15  41    4.7971   630.9    2.804      54.995
2015    2       28    15  46    4.7950   630.7    2.804      54.954
2015    2       28    15  51    4.7928   630.5    2.805      54.912
2015    2       28    15  57    4.7907   630.3    2.805      54.869
2015    2       28    16   2    4.7885   630.1    2.806      54.825
2015    2       28    16   7    4.7864   629.8    2.806      54.781
2015    2       28    16  12    4.7842   629.6    2.806      54.736
2015    2       28    16  17    4.7821   629.4    2.807      54.691
2015    2       28    16  23    4.7799   629.2    2.807      54.645
2015    2       28    16  28    4.7777   629.0    2.807      54.598
2015    2       28    16  33    4.7756   628.8    2.808      54.551
2015    2       28    16  38    4.7734   628.6    2.808      54.503
2015    2       28    16  43    4.7712   628.4    2.808      54.455
2015    2       28    16  49    4.7690   628.2    2.808      54.407
2015    2       28    16  54    4.7668   628.0    2.808      54.358
2015    2       28    16  59    4.7646   627.8    2.808      54.308
2015    2       28    17   4    4.7624   627.6    2.808      54.259
2015    2       28    17   9    4.7602   627.3    2.808      54.209
2015    2       28    17  15    4.7580   627.1    2.808      54.158
2015    2       28    17  20    4.7558   626.9    2.808      54.107
2015    2       28    17  25    4.7535   626.7    2.808      54.056
2015    2       28    17  30    4.7513   626.5    2.808      54.004
2015    2       28    17  35    4.7491   626.3    2.808      53.952
2015    2       28    17  41    4.7469   626.1    2.808      53.900
2015    2       28    17  46    4.7446   625.9    2.808      53.847
2015    2       28    17  51    4.7424   625.7    2.807      53.794
2015    2       28    17  56    4.7401   625.4    2.807      53.741
2015    2       28    18   1    4.7379   625.2    2.807      53.688
2015    2       28    18   7    4.7356   625.0    2.807      53.634
2015    2       28    18  12    4.7334   624.8    2.807      53.581
2015    2       28    18  17    4.7311   624.6    2.806      53.526
2015    2       28    18  22    4.7289   624.4    2.806      53.472
2015    2       28    18  27    4.7266   624.2    2.806      53.418
2015    2       28    18  33    4.7244   624.0    2.805      53.363
2015    2       28    18  38    4.7221   623.7    2.805      53.308
2015    2       28    18  43    4.7199   623.5    2.805      53.253
2015    2       28    18  48    4.7176   623.3    2.805      53.199
2015    2       28    18  53    4.7153   623.1    2.804      53.143
2015    2       28    18  58    4.7131   622.9    2.804      53.088
2015    2       28    19   4    4.7108   622.7    2.804      53.033
2015    2       28    19   9    4.7086   622.4    2.804      52.978
2015    2       28    19  14    4.7063   622.2    2.804      52.923
2015    2       28    19  19    4.7041   622.0    2.803      52.867
2015    2       28    19  24    4.7018   621.8    2.803      52.812
2015    2       28    19  30    4.6996   621.6    2.803      52.757
2015    2       28    19  35    4.6974   621.3    2.803      52.702
2015    2       28    19  40    4.6952   621.1    2.803      52.648
2015    2       28    19  45    4.6929   620.9    2.803      52.593
2015    2       28    19  50    4.6908   620.7    2.803      52.538
2015    2       28    19  56    4.6886   620.5    2.803      52.483
2015    2       28    20   1    4.6864   620.2    2.803      52.429
2015    2       28    20   6    4.6842   620.0    2.803      52.375
2015    2       28    20  11    4.6820   619.8    2.803      52.321
2015    2       28    20  16    4.6799   619.6    2.803      52.267
2015    2       28    20  22    4.6777   619.3    2.803      52.213
2015    2       28    20  27    4.6755   619.1    2.803      52.159
2015    2       28    20  32    4.6734   618.9    2.803      52.105
2015    2       28    20  37    4.6712   618.7    2.804      52.052
2015    2       28    20  42    4.6690   618.4    2.804      51.998
2015    2       28    20  48    4.6669   618.2    2.804      51.944
2015    2       28    20  53    4.6647   618.0    2.804      51.891
2015    2       28    20  58    4.6626   617.7    2.804      51.837
2015    2       28    21   3    4.6604   617.5    2.804      51.784
2015    2       28    21   8    4.6583   617.3    2.805      51.730
2015    2       28    21  14    4.6561   617.0    2.805      51.677
2015    2       28    21  19    4.6540   616.8    2.805      51.624
2015    2       28    21  24    4.6518   616.5    2.805      51.571
2015    2       28    21  29    4.6497   616.3    2.806      51.518
2015    2       28    21  34    4.6476   616.1    2.806      51.465
2015    2       28    21  40    4.6455   615.8    2.806      51.412
2015    2       28    21  45    4.6434   615.6    2.807      51.359
2015    2       28    21  50    4.6412   615.3    2.807      51.306
2015    2       28    21  55    4.6392   615.1    2.807      51.254
2015    2       28    22   0    4.6371   614.8    2.808      51.202
2015    2       28    22   6    4.6351   614.6    2.808      51.150
2015    2       28    22  11    4.6330   614.3    2.809      51.097
2015    2       28    22  16    4.6310   614.1    2.809      51.046
2015    2       28    22  21    4.6289   613.8    2.809      50.994
2015    2       28    22  26    4.6269   613.6    2.810      50.942
2015    2       28    22  31    4.6249   613.3    2.810      50.890
2015    2       28    22  37    4.6229   613.1    2.811      50.838
2015    2       28    22  42    4.6209   612.8    2.812      50.786
2015    2       28    22  47    4.6189   612.6    2.812      50.734
2015    2       28    22  52    4.6169   612.3    2.813      50.682
2015    2       28    22  57    4.6149   612.1    2.813      50.629
2015    2       28    23   3    4.6129   611.8    2.814      50.576
2015    2       28    23   8    4.6109   611.5    2.814      50.523
2015    2       28    23  13    4.6090   611.3    2.815      50.469
2015    2       28    23  18    4.6070   611.0    2.815      50.416
2015    2       28    23  23    4.6050   610.8    2.816      50.361
2015    2       28    23  29    4.6030   610.5    2.817      50.307
2015    2       28    23  34    4.6010   610.2    2.817      50.252
2015    2       28    23  39    4.5991   610.0    2.818      50.197
2015    2       28    23  43    4.5974   609.8    2.818      50.155
2015    2       28    23  47    4.5960   609.6    2.818      50.119
2015    2       28    23  51    4.5946   609.4    2.819      50.085
2015    2       28    23  54    4.5932   609.2    2.819      50.051
2015    2       28    23  58    4.5919   609.0    2.820      50.019
2015    3        1     0   1    4.5906   608.8    2.820      49.989
2015    3        1     0   5    4.5893   608.6    2.820      49.958
2015    3        1     0   8    4.5880   608.5    2.821      49.928
2015    3        1     0  12    4.5867   608.3    2.821      49.898
2015    3        1     0  15    4.5854   608.1    2.821      49.868
2015    3        1     0  18    4.5841   607.9    2.822      49.838
2015    3        1     0  22    4.5828   607.8    2.822      49.808
2015    3        1     0  25    4.5815   607.6    2.822      49.779
2015    3        1     0  28    4.5802   607.4    2.823      49.749
2015    3        1     0  32    4.5790   607.2    2.823      49.719
2015    3        1     0  35    4.5777   607.1    2.823      49.690
2015    3        1     0  38    4.5764   606.9    2.824      49.661
2015    3        1     0  42    4.5751   606.7    2.824      49.631
2015    3        1     0  45    4.5739   606.6    2.824      49.602
