year    month   day   hour  minute  B_enl V_enl   n_enl       T_enl
[year] [month] [day] [hour][minute] [nT]  [km/s]  [cm-3]      [kK]
2015    2       21     0   4    6.1906   584.0    4.483      65.921
2015    2       21     0   9    6.1837   584.1    4.475      65.861
2015    2       21     0  15    6.1772   584.2    4.468      65.801
2015    2       21     0  20    6.1704   584.3    4.460      65.741
2015    2       21     0  25    6.1640   584.4    4.452      65.681
2015    2       21     0  30    6.1573   584.5    4.445      65.621
2015    2       21     0  36    6.1509   584.6    4.438      65.562
2015    2       21     0  41    6.1445   584.6    4.431      65.503
2015    2       21     0  46    6.1382   584.7    4.424      65.444
2015    2       21     0  51    6.1321   584.8    4.417      65.386
2015    2       21     0  57    6.1258   584.9    4.410      65.330
2015    2       21     1   2    6.1195   584.9    4.403      65.274
2015    2       21     1   7    6.1133   585.0    4.396      65.219
2015    2       21     1  12    6.1072   585.1    4.389      65.164
2015    2       21     1  18    6.1012   585.2    4.382      65.109
2015    2       21     1  23    6.0952   585.2    4.376      65.054
2015    2       21     1  28    6.0893   585.3    4.369      64.999
2015    2       21     1  34    6.0833   585.4    4.363      64.943
2015    2       21     1  39    6.0771   585.5    4.356      64.887
2015    2       21     1  44    6.0714   585.5    4.350      64.829
2015    2       21     1  49    6.0654   585.6    4.343      64.772
2015    2       21     1  55    6.0595   585.7    4.337      64.714
2015    2       21     2   0    6.0535   585.8    4.331      64.656
2015    2       21     2   5    6.0476   585.8    4.324      64.597
2015    2       21     2  10    6.0418   585.9    4.318      64.537
2015    2       21     2  16    6.0359   586.0    4.312      64.476
2015    2       21     2  21    6.0301   586.0    4.306      64.415
2015    2       21     2  26    6.0243   586.1    4.300      64.354
2015    2       21     2  31    6.0183   586.1    4.293      64.292
2015    2       21     2  37    6.0125   586.2    4.287      64.230
2015    2       21     2  42    6.0068   586.2    4.281      64.167
2015    2       21     2  47    6.0011   586.3    4.275      64.105
2015    2       21     2  52    5.9957   586.3    4.270      64.043
2015    2       21     2  58    5.9901   586.3    4.264      63.982
2015    2       21     3   3    5.9846   586.4    4.259      63.920
2015    2       21     3   8    5.9791   586.4    4.253      63.860
2015    2       21     3  14    5.9736   586.4    4.248      63.801
2015    2       21     3  19    5.9682   586.4    4.243      63.742
2015    2       21     3  24    5.9629   586.4    4.238      63.685
2015    2       21     3  29    5.9576   586.4    4.234      63.628
2015    2       21     3  35    5.9523   586.4    4.229      63.573
2015    2       21     3  40    5.9471   586.4    4.225      63.520
2015    2       21     3  45    5.9418   586.4    4.221      63.469
2015    2       21     3  50    5.9367   586.4    4.218      63.419
2015    2       21     3  56    5.9314   586.4    4.214      63.370
2015    2       21     4   1    5.9265   586.4    4.211      63.323
2015    2       21     4   6    5.9214   586.4    4.207      63.277
2015    2       21     4  11    5.9164   586.4    4.204      63.231
2015    2       21     4  17    5.9112   586.5    4.201      63.187
2015    2       21     4  22    5.9064   586.5    4.198      63.142
2015    2       21     4  27    5.9014   586.5    4.195      63.098
2015    2       21     4  32    5.8964   586.5    4.192      63.054
2015    2       21     4  38    5.8914   586.5    4.189      63.010
2015    2       21     4  43    5.8863   586.5    4.186      62.967
2015    2       21     4  48    5.8815   586.5    4.183      62.922
2015    2       21     4  54    5.8765   586.5    4.180      62.878
2015    2       21     4  59    5.8713   586.6    4.176      62.834
2015    2       21     5   4    5.8665   586.6    4.173      62.788
2015    2       21     5   9    5.8615   586.6    4.170      62.742
2015    2       21     5  15    5.8565   586.6    4.166      62.695
2015    2       21     5  20    5.8512   586.6    4.163      62.648
2015    2       21     5  25    5.8462   586.6    4.159      62.601
2015    2       21     5  30    5.8414   586.7    4.156      62.553
2015    2       21     5  36    5.8364   586.7    4.152      62.505
2015    2       21     5  41    5.8313   586.7    4.149      62.457
2015    2       21     5  46    5.8261   586.7    4.145      62.408
2015    2       21     5  51    5.8210   586.7    4.141      62.359
2015    2       21     5  57    5.8161   586.8    4.138      62.311
2015    2       21     6   2    5.8111   586.8    4.134      62.261
2015    2       21     6   7    5.8058   586.8    4.130      62.212
2015    2       21     6  12    5.8007   586.8    4.127      62.163
2015    2       21     6  18    5.7956   586.8    4.123      62.114
2015    2       21     6  23    5.7905   586.8    4.119      62.064
2015    2       21     6  28    5.7855   586.9    4.116      62.014
2015    2       21     6  34    5.7806   586.9    4.112      61.965
2015    2       21     6  39    5.7753   586.9    4.108      61.915
2015    2       21     6  44    5.7704   586.9    4.105      61.865
2015    2       21     6  49    5.7653   586.9    4.101      61.815
2015    2       21     6  55    5.7600   586.9    4.097      61.764
2015    2       21     7   0    5.7551   586.9    4.093      61.714
2015    2       21     7   5    5.7498   586.9    4.090      61.664
2015    2       21     7  10    5.7450   586.9    4.086      61.613
2015    2       21     7  16    5.7397   586.9    4.082      61.562
2015    2       21     7  21    5.7347   586.9    4.079      61.512
2015    2       21     7  26    5.7298   586.9    4.075      61.461
2015    2       21     7  31    5.7248   586.9    4.071      61.410
2015    2       21     7  37    5.7199   586.9    4.067      61.359
2015    2       21     7  42    5.7149   586.9    4.064      61.307
2015    2       21     7  47    5.7099   586.9    4.060      61.256
2015    2       21     7  53    5.7048   586.9    4.056      61.205
2015    2       21     7  58    5.7001   586.9    4.052      61.154
2015    2       21     8   3    5.6950   586.8    4.049      61.102
2015    2       21     8   8    5.6904   586.8    4.045      61.051
2015    2       21     8  14    5.6856   586.8    4.041      60.999
2015    2       21     8  19    5.6807   586.8    4.038      60.948
2015    2       21     8  24    5.6758   586.8    4.034      60.896
2015    2       21     8  29    5.6710   586.7    4.031      60.845
2015    2       21     8  35    5.6665   586.7    4.027      60.793
2015    2       21     8  40    5.6616   586.7    4.023      60.742
2015    2       21     8  45    5.6570   586.7    4.020      60.690
2015    2       21     8  50    5.6524   586.6    4.016      60.639
2015    2       21     8  56    5.6478   586.6    4.013      60.587
2015    2       21     9   1    5.6434   586.6    4.010      60.536
2015    2       21     9   6    5.6389   586.5    4.006      60.484
2015    2       21     9  11    5.6342   586.5    4.003      60.433
2015    2       21     9  17    5.6299   586.4    4.000      60.382
2015    2       21     9  22    5.6255   586.4    3.996      60.331
2015    2       21     9  27    5.6208   586.4    3.993      60.280
2015    2       21     9  33    5.6167   586.3    3.990      60.229
2015    2       21     9  38    5.6124   586.3    3.987      60.178
2015    2       21     9  43    5.6080   586.2    3.984      60.127
2015    2       21     9  48    5.6037   586.2    3.981      60.077
2015    2       21     9  54    5.5995   586.1    3.978      60.026
2015    2       21     9  59    5.5953   586.1    3.975      59.976
2015    2       21    10   4    5.5911   586.0    3.972      59.925
2015    2       21    10   9    5.5869   586.0    3.969      59.875
2015    2       21    10  15    5.5825   585.9    3.966      59.825
2015    2       21    10  20    5.5786   585.9    3.964      59.775
2015    2       21    10  25    5.5743   585.8    3.961      59.725
2015    2       21    10  30    5.5705   585.7    3.958      59.675
2015    2       21    10  36    5.5662   585.7    3.955      59.625
2015    2       21    10  41    5.5622   585.6    3.953      59.575
2015    2       21    10  46    5.5584   585.6    3.950      59.526
2015    2       21    10  51    5.5544   585.5    3.947      59.477
2015    2       21    10  57    5.5503   585.5    3.944      59.427
2015    2       21    11   2    5.5463   585.4    3.942      59.378
2015    2       21    11   7    5.5424   585.3    3.939      59.329
2015    2       21    11  13    5.5385   585.3    3.937      59.280
2015    2       21    11  18    5.5349   585.2    3.934      59.232
2015    2       21    11  23    5.5308   585.2    3.931      59.183
2015    2       21    11  28    5.5271   585.1    3.929      59.135
2015    2       21    11  34    5.5233   585.1    3.926      59.087
2015    2       21    11  39    5.5193   585.0    3.924      59.039
2015    2       21    11  44    5.5154   584.9    3.921      58.991
2015    2       21    11  49    5.5118   584.9    3.919      58.943
2015    2       21    11  55    5.5080   584.8    3.916      58.896
2015    2       21    12   0    5.5040   584.7    3.913      58.848
2015    2       21    12   5    5.5003   584.7    3.911      58.801
2015    2       21    12  10    5.4965   584.6    3.908      58.754
2015    2       21    12  16    5.4927   584.6    3.906      58.707
2015    2       21    12  21    5.4887   584.5    3.904      58.660
2015    2       21    12  26    5.4851   584.4    3.901      58.614
2015    2       21    12  32    5.4813   584.4    3.899      58.568
2015    2       21    12  37    5.4775   584.3    3.896      58.521
2015    2       21    12  42    5.4735   584.2    3.894      58.475
2015    2       21    12  47    5.4697   584.2    3.892      58.429
2015    2       21    12  53    5.4660   584.1    3.889      58.383
2015    2       21    12  58    5.4622   584.0    3.887      58.337
2015    2       21    13   3    5.4583   584.0    3.885      58.292
2015    2       21    13   8    5.4546   583.9    3.882      58.246
2015    2       21    13  14    5.4507   583.8    3.880      58.201
2015    2       21    13  19    5.4469   583.8    3.878      58.156
2015    2       21    13  24    5.4432   583.7    3.876      58.110
2015    2       21    13  29    5.4393   583.6    3.874      58.065
2015    2       21    13  35    5.4357   583.5    3.872      58.020
2015    2       21    13  40    5.4319   583.5    3.870      57.975
2015    2       21    13  45    5.4280   583.4    3.868      57.930
2015    2       21    13  50    5.4244   583.3    3.865      57.886
2015    2       21    13  56    5.4206   583.2    3.864      57.841
2015    2       21    14   1    5.4169   583.2    3.862      57.796
2015    2       21    14   6    5.4130   583.1    3.860      57.751
2015    2       21    14  12    5.4093   583.0    3.858      57.707
2015    2       21    14  17    5.4056   582.9    3.856      57.662
2015    2       21    14  22    5.4019   582.9    3.854      57.618
2015    2       21    14  27    5.3982   582.8    3.852      57.573
2015    2       21    14  33    5.3947   582.7    3.851      57.529
2015    2       21    14  38    5.3910   582.6    3.849      57.484
2015    2       21    14  43    5.3874   582.5    3.847      57.440
2015    2       21    14  48    5.3838   582.5    3.846      57.396
2015    2       21    14  54    5.3802   582.4    3.844      57.352
2015    2       21    14  59    5.3765   582.3    3.842      57.308
2015    2       21    15   4    5.3729   582.2    3.841      57.264
2015    2       21    15   9    5.3695   582.1    3.839      57.219
2015    2       21    15  15    5.3658   582.1    3.838      57.175
2015    2       21    15  20    5.3624   582.0    3.837      57.131
2015    2       21    15  25    5.3589   581.9    3.835      57.087
2015    2       21    15  30    5.3554   581.8    3.834      57.044
2015    2       21    15  36    5.3518   581.7    3.832      57.000
2015    2       21    15  41    5.3483   581.6    3.831      56.956
2015    2       21    15  46    5.3449   581.5    3.830      56.912
2015    2       21    15  52    5.3415   581.4    3.829      56.869
2015    2       21    15  57    5.3381   581.3    3.827      56.825
2015    2       21    16   2    5.3347   581.2    3.826      56.782
2015    2       21    16   7    5.3315   581.2    3.825      56.738
2015    2       21    16  13    5.3282   581.1    3.824      56.695
2015    2       21    16  18    5.3247   581.0    3.822      56.651
2015    2       21    16  23    5.3214   580.9    3.821      56.608
2015    2       21    16  28    5.3182   580.8    3.820      56.565
2015    2       21    16  34    5.3151   580.7    3.819      56.522
2015    2       21    16  39    5.3117   580.6    3.818      56.480
2015    2       21    16  44    5.3086   580.5    3.817      56.437
2015    2       21    16  49    5.3055   580.4    3.816      56.394
2015    2       21    16  55    5.3022   580.3    3.815      56.352
2015    2       21    17   0    5.2990   580.2    3.814      56.310
2015    2       21    17   5    5.2959   580.1    3.813      56.268
2015    2       21    17  10    5.2928   580.0    3.812      56.226
2015    2       21    17  16    5.2899   579.8    3.811      56.184
2015    2       21    17  21    5.2867   579.7    3.810      56.143
2015    2       21    17  26    5.2838   579.6    3.809      56.101
2015    2       21    17  32    5.2809   579.5    3.808      56.060
2015    2       21    17  37    5.2777   579.4    3.807      56.019
2015    2       21    17  42    5.2749   579.3    3.807      55.978
2015    2       21    17  47    5.2718   579.2    3.806      55.937
2015    2       21    17  53    5.2690   579.1    3.805      55.897
2015    2       21    17  58    5.2659   579.0    3.804      55.856
2015    2       21    18   3    5.2630   578.9    3.803      55.816
2015    2       21    18   8    5.2601   578.8    3.802      55.776
2015    2       21    18  14    5.2571   578.7    3.801      55.736
2015    2       21    18  19    5.2542   578.6    3.800      55.696
2015    2       21    18  24    5.2514   578.5    3.800      55.656
2015    2       21    18  29    5.2485   578.3    3.799      55.615
2015    2       21    18  35    5.2456   578.2    3.798      55.576
2015    2       21    18  40    5.2427   578.1    3.797      55.536
2015    2       21    18  45    5.2398   578.0    3.796      55.496
2015    2       21    18  51    5.2369   577.9    3.795      55.456
2015    2       21    18  56    5.2340   577.8    3.793      55.416
2015    2       21    19   1    5.2309   577.7    3.792      55.376
2015    2       21    19   6    5.2282   577.5    3.791      55.336
2015    2       21    19  12    5.2253   577.4    3.790      55.296
2015    2       21    19  17    5.2223   577.3    3.789      55.256
2015    2       21    19  22    5.2195   577.2    3.788      55.216
2015    2       21    19  27    5.2167   577.1    3.786      55.176
2015    2       21    19  33    5.2138   576.9    3.785      55.136
2015    2       21    19  38    5.2110   576.8    3.784      55.096
2015    2       21    19  43    5.2082   576.7    3.783      55.055
2015    2       21    19  48    5.2053   576.6    3.781      55.015
2015    2       21    19  54    5.2024   576.4    3.780      54.975
2015    2       21    19  59    5.1997   576.3    3.779      54.934
2015    2       21    20   4    5.1969   576.2    3.777      54.893
2015    2       21    20   9    5.1941   576.1    3.776      54.852
2015    2       21    20  15    5.1913   575.9    3.774      54.812
2015    2       21    20  20    5.1884   575.8    3.773      54.770
2015    2       21    20  25    5.1858   575.7    3.772      54.729
2015    2       21    20  31    5.1831   575.6    3.770      54.688
2015    2       21    20  36    5.1803   575.4    3.769      54.646
2015    2       21    20  41    5.1776   575.3    3.767      54.604
2015    2       21    20  46    5.1749   575.2    3.766      54.562
2015    2       21    20  52    5.1722   575.0    3.764      54.519
2015    2       21    20  57    5.1695   574.9    3.763      54.477
2015    2       21    21   2    5.1667   574.8    3.762      54.434
2015    2       21    21   7    5.1642   574.6    3.760      54.391
2015    2       21    21  13    5.1615   574.5    3.759      54.348
2015    2       21    21  18    5.1589   574.4    3.757      54.305
2015    2       21    21  23    5.1563   574.2    3.756      54.262
2015    2       21    21  28    5.1537   574.1    3.755      54.218
2015    2       21    21  34    5.1511   574.0    3.753      54.175
2015    2       21    21  39    5.1485   573.8    3.752      54.131
2015    2       21    21  44    5.1460   573.7    3.751      54.087
2015    2       21    21  49    5.1433   573.6    3.750      54.043
2015    2       21    21  55    5.1408   573.4    3.748      53.999
2015    2       21    22   0    5.1384   573.3    3.747      53.955
2015    2       21    22   5    5.1359   573.2    3.746      53.911
2015    2       21    22  11    5.1334   573.0    3.745      53.867
2015    2       21    22  16    5.1308   572.9    3.744      53.822
2015    2       21    22  21    5.1285   572.8    3.743      53.778
2015    2       21    22  26    5.1259   572.6    3.742      53.734
2015    2       21    22  32    5.1236   572.5    3.741      53.690
2015    2       21    22  37    5.1212   572.4    3.740      53.645
2015    2       21    22  42    5.1188   572.2    3.739      53.601
2015    2       21    22  47    5.1164   572.1    3.738      53.557
2015    2       21    22  53    5.1140   572.0    3.738      53.513
2015    2       21    22  58    5.1116   571.8    3.737      53.468
2015    2       21    23   3    5.1093   571.7    3.736      53.424
2015    2       21    23   8    5.1070   571.5    3.735      53.380
2015    2       21    23  14    5.1045   571.4    3.735      53.335
2015    2       21    23  19    5.1023   571.3    3.734      53.291
2015    2       21    23  24    5.1000   571.1    3.733      53.247
2015    2       21    23  29    5.0977   571.0    3.733      53.203
2015    2       21    23  35    5.0953   570.9    3.732      53.159
2015    2       21    23  40    5.0931   570.7    3.732      53.115
2015    2       21    23  45    5.0908   570.6    3.731      53.071
2015    2       21    23  51    5.0885   570.4    3.731      53.027
2015    2       21    23  56    5.0862   570.3    3.730      52.983
2015    2       22     0   1    5.0840   570.2    3.730      52.939
2015    2       22     0   6    5.0816   570.0    3.730      52.895
2015    2       22     0  12    5.0795   569.9    3.729      52.852
2015    2       22     0  17    5.0771   569.7    3.729      52.808
2015    2       22     0  22    5.0749   569.6    3.729      52.765
2015    2       22     0  27    5.0727   569.5    3.729      52.721
2015    2       22     0  33    5.0704   569.3    3.728      52.678
2015    2       22     0  38    5.0682   569.2    3.728      52.635
2015    2       22     0  43    5.0660   569.0    3.728      52.592
2015    2       22     0  48    5.0638   568.9    3.728      52.549
2015    2       22     0  54    5.0616   568.8    3.728      52.507
2015    2       22     0  59    5.0594   568.6    3.728      52.464
2015    2       22     1   4    5.0571   568.5    3.728      52.422
2015    2       22     1  10    5.0549   568.3    3.728      52.380
2015    2       22     1  15    5.0527   568.2    3.728      52.339
2015    2       22     1  20    5.0505   568.0    3.728      52.297
2015    2       22     1  25    5.0482   567.9    3.729      52.256
2015    2       22     1  31    5.0460   567.7    3.729      52.215
2015    2       22     1  36    5.0438   567.6    3.729      52.175
