year    month   day   hour  minute  B_enl V_enl   n_enl       T_enl
[year] [month] [day] [hour][minute] [nT]  [km/s]  [cm-3]      [kK]
2015    2        7     0   2    7.8784   432.9    8.156      48.665
2015    2        7     0   8    7.8803   433.1    8.151      48.694
2015    2        7     0  13    7.8822   433.2    8.146      48.723
2015    2        7     0  18    7.8841   433.4    8.141      48.751
2015    2        7     0  23    7.8860   433.5    8.136      48.779
2015    2        7     0  28    7.8878   433.7    8.131      48.807
2015    2        7     0  33    7.8897   433.8    8.126      48.834
2015    2        7     0  38    7.8915   434.0    8.121      48.861
2015    2        7     0  43    7.8934   434.1    8.116      48.888
2015    2        7     0  49    7.8953   434.2    8.110      48.914
2015    2        7     0  54    7.8971   434.4    8.105      48.940
2015    2        7     0  59    7.8990   434.5    8.101      48.966
2015    2        7     1   4    7.9009   434.7    8.096      48.991
2015    2        7     1   9    7.9027   434.8    8.091      49.017
2015    2        7     1  14    7.9046   435.0    8.086      49.042
2015    2        7     1  19    7.9064   435.1    8.081      49.067
2015    2        7     1  24    7.9083   435.3    8.077      49.093
2015    2        7     1  30    7.9102   435.4    8.072      49.117
2015    2        7     1  35    7.9120   435.6    8.068      49.142
2015    2        7     1  40    7.9139   435.7    8.063      49.167
2015    2        7     1  45    7.9158   435.9    8.059      49.192
2015    2        7     1  50    7.9177   436.0    8.055      49.217
2015    2        7     1  55    7.9195   436.1    8.051      49.242
2015    2        7     2   0    7.9214   436.3    8.048      49.268
2015    2        7     2   6    7.9233   436.4    8.044      49.293
2015    2        7     2  11    7.9252   436.6    8.041      49.319
2015    2        7     2  16    7.9271   436.7    8.037      49.345
2015    2        7     2  21    7.9288   436.9    8.034      49.371
2015    2        7     2  26    7.9309   437.0    8.031      49.398
2015    2        7     2  31    7.9328   437.2    8.029      49.425
2015    2        7     2  36    7.9347   437.3    8.026      49.452
2015    2        7     2  41    7.9367   437.5    8.024      49.479
2015    2        7     2  47    7.9384   437.6    8.022      49.507
2015    2        7     2  52    7.9405   437.8    8.020      49.535
2015    2        7     2  57    7.9424   437.9    8.019      49.564
2015    2        7     3   2    7.9443   438.1    8.017      49.593
2015    2        7     3   7    7.9462   438.2    8.016      49.623
2015    2        7     3  12    7.9477   438.4    8.015      49.655
2015    2        7     3  17    7.9498   438.5    8.015      49.689
2015    2        7     3  22    7.9515   438.7    8.014      49.724
2015    2        7     3  28    7.9532   438.9    8.013      49.761
2015    2        7     3  33    7.9549   439.0    8.012      49.800
2015    2        7     3  38    7.9565   439.2    8.012      49.840
2015    2        7     3  43    7.9580   439.4    8.011      49.882
2015    2        7     3  48    7.9595   439.5    8.010      49.924
2015    2        7     3  53    7.9608   439.7    8.009      49.967
2015    2        7     3  58    7.9621   439.9    8.008      50.010
2015    2        7     4   3    7.9633   440.0    8.006      50.054
2015    2        7     4   9    7.9644   440.2    8.004      50.099
2015    2        7     4  14    7.9651   440.4    8.002      50.144
2015    2        7     4  19    7.9663   440.6    8.000      50.189
2015    2        7     4  24    7.9671   440.8    7.997      50.235
2015    2        7     4  29    7.9679   440.9    7.994      50.280
2015    2        7     4  34    7.9686   441.1    7.991      50.323
2015    2        7     4  39    7.9691   441.3    7.987      50.366
2015    2        7     4  45    7.9697   441.5    7.983      50.408
2015    2        7     4  50    7.9701   441.6    7.979      50.450
2015    2        7     4  55    7.9705   441.8    7.975      50.490
2015    2        7     5   0    7.9709   442.0    7.970      50.529
2015    2        7     5   5    7.9709   442.2    7.965      50.568
2015    2        7     5  10    7.9714   442.4    7.960      50.605
2015    2        7     5  15    7.9715   442.5    7.954      50.642
2015    2        7     5  20    7.9717   442.7    7.949      50.678
2015    2        7     5  26    7.9718   442.9    7.943      50.713
2015    2        7     5  31    7.9718   443.1    7.937      50.748
2015    2        7     5  36    7.9719   443.2    7.931      50.781
2015    2        7     5  41    7.9716   443.4    7.924      50.814
2015    2        7     5  46    7.9718   443.6    7.918      50.846
2015    2        7     5  51    7.9718   443.8    7.911      50.877
2015    2        7     5  56    7.9717   443.9    7.904      50.908
2015    2        7     6   1    7.9715   444.1    7.897      50.938
2015    2        7     6   7    7.9714   444.3    7.890      50.967
2015    2        7     6  12    7.9712   444.5    7.883      50.996
2015    2        7     6  17    7.9710   444.6    7.875      51.024
2015    2        7     6  22    7.9708   444.8    7.868      51.051
2015    2        7     6  27    7.9705   445.0    7.860      51.078
2015    2        7     6  32    7.9702   445.1    7.852      51.104
2015    2        7     6  37    7.9699   445.3    7.845      51.130
2015    2        7     6  42    7.9696   445.5    7.837      51.154
2015    2        7     6  48    7.9692   445.7    7.829      51.179
2015    2        7     6  53    7.9688   445.8    7.821      51.203
2015    2        7     6  58    7.9684   446.0    7.813      51.226
2015    2        7     7   3    7.9680   446.2    7.805      51.249
2015    2        7     7   8    7.9675   446.3    7.797      51.272
2015    2        7     7  13    7.9671   446.5    7.788      51.294
2015    2        7     7  18    7.9666   446.7    7.780      51.315
2015    2        7     7  24    7.9660   446.8    7.772      51.336
2015    2        7     7  29    7.9655   447.0    7.763      51.357
2015    2        7     7  34    7.9649   447.2    7.755      51.377
2015    2        7     7  39    7.9643   447.3    7.747      51.397
2015    2        7     7  44    7.9637   447.5    7.738      51.416
2015    2        7     7  49    7.9629   447.7    7.730      51.436
2015    2        7     7  54    7.9624   447.8    7.722      51.454
2015    2        7     7  59    7.9618   448.0    7.713      51.473
2015    2        7     8   5    7.9611   448.2    7.705      51.491
2015    2        7     8  10    7.9604   448.3    7.696      51.509
2015    2        7     8  15    7.9596   448.5    7.688      51.527
2015    2        7     8  20    7.9589   448.7    7.679      51.544
2015    2        7     8  25    7.9581   448.8    7.671      51.561
2015    2        7     8  30    7.9573   449.0    7.663      51.578
2015    2        7     8  35    7.9562   449.1    7.654      51.595
2015    2        7     8  40    7.9556   449.3    7.646      51.611
2015    2        7     8  46    7.9547   449.5    7.637      51.627
2015    2        7     8  51    7.9538   449.6    7.629      51.643
2015    2        7     8  56    7.9529   449.8    7.621      51.658
2015    2        7     9   1    7.9520   450.0    7.612      51.674
2015    2        7     9   6    7.9508   450.1    7.604      51.689
2015    2        7     9  11    7.9501   450.3    7.596      51.704
2015    2        7     9  16    7.9490   450.4    7.588      51.718
2015    2        7     9  22    7.9480   450.6    7.579      51.733
2015    2        7     9  27    7.9470   450.7    7.571      51.747
2015    2        7     9  32    7.9459   450.9    7.563      51.761
2015    2        7     9  37    7.9446   451.1    7.555      51.775
2015    2        7     9  42    7.9437   451.2    7.547      51.788
2015    2        7     9  47    7.9426   451.4    7.539      51.802
2015    2        7     9  52    7.9414   451.5    7.532      51.816
2015    2        7     9  57    7.9402   451.7    7.524      51.829
2015    2        7    10   3    7.9390   451.8    7.516      51.842
2015    2        7    10   8    7.9378   452.0    7.509      51.855
2015    2        7    10  13    7.9365   452.1    7.501      51.868
2015    2        7    10  18    7.9352   452.3    7.494      51.881
2015    2        7    10  23    7.9339   452.4    7.487      51.894
2015    2        7    10  28    7.9325   452.6    7.479      51.908
2015    2        7    10  33    7.9311   452.7    7.472      51.922
2015    2        7    10  38    7.9297   452.9    7.465      51.936
2015    2        7    10  44    7.9282   453.0    7.458      51.951
2015    2        7    10  49    7.9264   453.2    7.451      51.965
2015    2        7    10  54    7.9251   453.3    7.444      51.980
2015    2        7    10  59    7.9235   453.5    7.437      51.995
2015    2        7    11   4    7.9219   453.6    7.430      52.010
2015    2        7    11   9    7.9202   453.8    7.423      52.025
2015    2        7    11  14    7.9185   453.9    7.416      52.040
2015    2        7    11  19    7.9167   454.1    7.409      52.056
2015    2        7    11  25    7.9149   454.2    7.402      52.071
2015    2        7    11  30    7.9127   454.4    7.395      52.086
2015    2        7    11  35    7.9111   454.5    7.387      52.101
2015    2        7    11  40    7.9091   454.7    7.380      52.116
2015    2        7    11  45    7.9071   454.8    7.373      52.131
2015    2        7    11  50    7.9051   455.0    7.366      52.145
2015    2        7    11  55    7.9031   455.1    7.359      52.159
2015    2        7    12   1    7.9010   455.2    7.351      52.173
2015    2        7    12   6    7.8989   455.4    7.344      52.187
2015    2        7    12  11    7.8967   455.5    7.337      52.200
2015    2        7    12  16    7.8945   455.7    7.330      52.213
2015    2        7    12  21    7.8923   455.8    7.322      52.226
2015    2        7    12  26    7.8901   456.0    7.315      52.239
2015    2        7    12  31    7.8875   456.1    7.308      52.251
2015    2        7    12  36    7.8856   456.2    7.301      52.264
2015    2        7    12  42    7.8830   456.4    7.294      52.276
2015    2        7    12  47    7.8810   456.5    7.286      52.288
2015    2        7    12  52    7.8786   456.6    7.279      52.300
2015    2        7    12  57    7.8763   456.8    7.272      52.311
2015    2        7    13   2    7.8739   456.9    7.265      52.323
2015    2        7    13   7    7.8716   457.1    7.258      52.334
2015    2        7    13  12    7.8692   457.2    7.251      52.346
2015    2        7    13  17    7.8668   457.3    7.244      52.357
2015    2        7    13  23    7.8644   457.5    7.237      52.368
2015    2        7    13  28    7.8620   457.6    7.230      52.380
2015    2        7    13  33    7.8596   457.7    7.223      52.391
2015    2        7    13  38    7.8572   457.8    7.216      52.402
2015    2        7    13  43    7.8547   458.0    7.209      52.413
2015    2        7    13  48    7.8523   458.1    7.203      52.424
2015    2        7    13  53    7.8499   458.2    7.196      52.435
2015    2        7    13  59    7.8474   458.4    7.189      52.447
2015    2        7    14   4    7.8450   458.5    7.182      52.458
2015    2        7    14   9    7.8425   458.6    7.175      52.469
2015    2        7    14  14    7.8401   458.7    7.169      52.480
2015    2        7    14  19    7.8376   458.9    7.162      52.491
2015    2        7    14  24    7.8352   459.0    7.155      52.502
2015    2        7    14  29    7.8327   459.1    7.149      52.513
2015    2        7    14  34    7.8303   459.2    7.142      52.524
2015    2        7    14  40    7.8278   459.4    7.135      52.535
2015    2        7    14  45    7.8254   459.5    7.129      52.547
2015    2        7    14  50    7.8230   459.6    7.122      52.558
2015    2        7    14  55    7.8205   459.7    7.116      52.569
2015    2        7    15   0    7.8181   459.8    7.109      52.581
2015    2        7    15   5    7.8155   460.0    7.103      52.593
2015    2        7    15  10    7.8133   460.1    7.096      52.604
2015    2        7    15  15    7.8109   460.2    7.090      52.616
2015    2        7    15  21    7.8083   460.3    7.084      52.628
2015    2        7    15  26    7.8061   460.4    7.077      52.639
2015    2        7    15  31    7.8038   460.6    7.071      52.651
2015    2        7    15  36    7.8014   460.7    7.065      52.664
2015    2        7    15  41    7.7991   460.8    7.058      52.676
2015    2        7    15  46    7.7967   460.9    7.052      52.689
2015    2        7    15  51    7.7944   461.0    7.046      52.702
2015    2        7    15  56    7.7920   461.1    7.040      52.715
2015    2        7    16   2    7.7897   461.2    7.034      52.728
2015    2        7    16   7    7.7874   461.4    7.027      52.741
2015    2        7    16  12    7.7851   461.5    7.021      52.754
2015    2        7    16  17    7.7828   461.6    7.015      52.767
2015    2        7    16  22    7.7803   461.7    7.009      52.780
2015    2        7    16  27    7.7782   461.8    7.003      52.793
2015    2        7    16  32    7.7759   461.9    6.997      52.805
2015    2        7    16  38    7.7736   462.1    6.990      52.818
2015    2        7    16  43    7.7713   462.2    6.984      52.830
2015    2        7    16  48    7.7689   462.3    6.978      52.843
2015    2        7    16  53    7.7665   462.4    6.972      52.855
2015    2        7    16  58    7.7640   462.5    6.965      52.867
2015    2        7    17   3    7.7618   462.6    6.959      52.878
2015    2        7    17   8    7.7594   462.7    6.952      52.889
2015    2        7    17  13    7.7568   462.9    6.946      52.900
2015    2        7    17  19    7.7543   463.0    6.940      52.911
2015    2        7    17  24    7.7520   463.1    6.933      52.921
2015    2        7    17  29    7.7495   463.2    6.927      52.931
2015    2        7    17  34    7.7470   463.3    6.920      52.941
2015    2        7    17  39    7.7445   463.4    6.914      52.950
2015    2        7    17  44    7.7420   463.5    6.907      52.959
2015    2        7    17  49    7.7395   463.6    6.901      52.968
2015    2        7    17  54    7.7369   463.7    6.894      52.977
2015    2        7    18   0    7.7344   463.9    6.888      52.986
2015    2        7    18   5    7.7317   464.0    6.882      52.994
2015    2        7    18  10    7.7293   464.1    6.875      53.002
2015    2        7    18  15    7.7267   464.2    6.869      53.011
2015    2        7    18  20    7.7241   464.3    6.863      53.018
2015    2        7    18  25    7.7216   464.4    6.856      53.026
2015    2        7    18  30    7.7190   464.5    6.850      53.034
2015    2        7    18  35    7.7164   464.6    6.844      53.041
2015    2        7    18  41    7.7139   464.7    6.838      53.049
2015    2        7    18  46    7.7113   464.8    6.831      53.056
2015    2        7    18  51    7.7088   464.9    6.825      53.063
2015    2        7    18  56    7.7062   465.0    6.819      53.070
2015    2        7    19   1    7.7037   465.1    6.813      53.077
2015    2        7    19   6    7.7012   465.2    6.807      53.084
2015    2        7    19  11    7.6986   465.3    6.802      53.091
2015    2        7    19  17    7.6961   465.4    6.796      53.097
2015    2        7    19  22    7.6936   465.5    6.790      53.104
2015    2        7    19  27    7.6911   465.6    6.784      53.111
2015    2        7    19  32    7.6886   465.7    6.779      53.117
2015    2        7    19  37    7.6861   465.8    6.773      53.124
2015    2        7    19  42    7.6836   465.9    6.768      53.130
2015    2        7    19  47    7.6811   466.0    6.762      53.137
2015    2        7    19  52    7.6787   466.1    6.757      53.143
2015    2        7    19  58    7.6762   466.2    6.752      53.150
2015    2        7    20   3    7.6738   466.2    6.747      53.156
2015    2        7    20   8    7.6713   466.3    6.742      53.163
2015    2        7    20  13    7.6689   466.4    6.737      53.169
2015    2        7    20  18    7.6664   466.5    6.732      53.175
2015    2        7    20  23    7.6640   466.6    6.727      53.182
2015    2        7    20  28    7.6616   466.7    6.722      53.189
2015    2        7    20  33    7.6592   466.8    6.717      53.195
2015    2        7    20  39    7.6567   466.9    6.712      53.202
2015    2        7    20  44    7.6543   467.0    6.708      53.209
2015    2        7    20  49    7.6520   467.1    6.703      53.216
2015    2        7    20  54    7.6496   467.2    6.698      53.223
2015    2        7    20  59    7.6472   467.3    6.694      53.230
2015    2        7    21   4    7.6448   467.3    6.690      53.237
2015    2        7    21   9    7.6425   467.4    6.685      53.244
2015    2        7    21  15    7.6401   467.5    6.681      53.252
2015    2        7    21  20    7.6378   467.6    6.676      53.259
2015    2        7    21  25    7.6354   467.7    6.672      53.266
2015    2        7    21  30    7.6331   467.8    6.668      53.274
2015    2        7    21  35    7.6308   467.9    6.664      53.282
2015    2        7    21  40    7.6285   468.0    6.660      53.289
2015    2        7    21  45    7.6262   468.0    6.656      53.298
2015    2        7    21  50    7.6239   468.1    6.652      53.306
2015    2        7    21  56    7.6217   468.2    6.648      53.314
2015    2        7    22   1    7.6194   468.3    6.644      53.322
2015    2        7    22   6    7.6172   468.4    6.640      53.331
2015    2        7    22  11    7.6151   468.5    6.636      53.340
2015    2        7    22  16    7.6129   468.5    6.632      53.349
2015    2        7    22  21    7.6106   468.6    6.628      53.358
2015    2        7    22  26    7.6085   468.7    6.624      53.368
2015    2        7    22  31    7.6063   468.8    6.620      53.377
2015    2        7    22  37    7.6043   468.9    6.617      53.387
2015    2        7    22  42    7.6022   468.9    6.613      53.398
2015    2        7    22  47    7.6001   469.0    6.609      53.408
2015    2        7    22  52    7.5981   469.1    6.606      53.419
2015    2        7    22  57    7.5961   469.2    6.602      53.430
2015    2        7    23   2    7.5942   469.2    6.599      53.441
2015    2        7    23   7    7.5922   469.3    6.595      53.453
2015    2        7    23  12    7.5903   469.4    6.592      53.466
2015    2        7    23  18    7.5885   469.5    6.589      53.478
2015    2        7    23  23    7.5866   469.5    6.585      53.492
2015    2        7    23  28    7.5849   469.6    6.582      53.505
2015    2        7    23  33    7.5831   469.7    6.579      53.519
2015    2        7    23  38    7.5813   469.8    6.575      53.533
2015    2        7    23  43    7.5796   469.9    6.572      53.547
2015    2        7    23  48    7.5779   469.9    6.569      53.561
2015    2        7    23  54    7.5762   470.0    6.565      53.576
2015    2        7    23  59    7.5746   470.1    6.562      53.590
2015    2        8     0   4    7.5729   470.2    6.559      53.605
2015    2        8     0   9    7.5713   470.3    6.555      53.620
2015    2        8     0  14    7.5697   470.3    6.552      53.634
2015    2        8     0  19    7.5680   470.4    6.548      53.649
2015    2        8     0  24    7.5664   470.5    6.545      53.663
2015    2        8     0  29    7.5648   470.6    6.541      53.678
2015    2        8     0  35    7.5632   470.7    6.538      53.692
2015    2        8     0  40    7.5616   470.7    6.534      53.706
2015    2        8     0  45    7.5601   470.8    6.530      53.720
2015    2        8     0  50    7.5584   470.9    6.527      53.734
2015    2        8     0  55    7.5569   471.0    6.523      53.748
