year    month   day   hour  minute  B_enl V_enl   n_enl       T_enl
[year] [month] [day] [hour][minute] [nT]  [km/s]  [cm-3]      [kK]
2015    2        7     0   4    7.1369   489.0    6.125      53.159
2015    2        7     0   9    7.1349   489.1    6.119      53.174
2015    2        7     0  14    7.1329   489.3    6.114      53.189
2015    2        7     0  20    7.1306   489.4    6.108      53.204
2015    2        7     0  25    7.1286   489.6    6.103      53.219
2015    2        7     0  30    7.1268   489.7    6.098      53.234
2015    2        7     0  35    7.1245   489.9    6.092      53.249
2015    2        7     0  40    7.1224   490.0    6.087      53.264
2015    2        7     0  46    7.1203   490.2    6.082      53.279
2015    2        7     0  51    7.1185   490.3    6.077      53.293
2015    2        7     0  56    7.1163   490.4    6.072      53.308
2015    2        7     1   1    7.1142   490.6    6.067      53.323
2015    2        7     1   7    7.1120   490.7    6.063      53.338
2015    2        7     1  12    7.1095   490.9    6.058      53.352
2015    2        7     1  17    7.1073   491.0    6.053      53.368
2015    2        7     1  22    7.1054   491.2    6.048      53.383
2015    2        7     1  27    7.1028   491.3    6.043      53.399
2015    2        7     1  33    7.1008   491.4    6.039      53.415
2015    2        7     1  38    7.0985   491.6    6.034      53.431
2015    2        7     1  43    7.0962   491.7    6.029      53.448
2015    2        7     1  48    7.0939   491.9    6.024      53.465
2015    2        7     1  54    7.0915   492.0    6.019      53.482
2015    2        7     1  59    7.0891   492.1    6.014      53.498
2015    2        7     2   4    7.0867   492.3    6.009      53.515
2015    2        7     2   9    7.0840   492.4    6.004      53.532
2015    2        7     2  14    7.0816   492.5    5.999      53.548
2015    2        7     2  20    7.0793   492.7    5.994      53.565
2015    2        7     2  25    7.0769   492.8    5.988      53.581
2015    2        7     2  30    7.0743   492.9    5.983      53.597
2015    2        7     2  35    7.0718   493.1    5.978      53.613
2015    2        7     2  41    7.0692   493.2    5.972      53.629
2015    2        7     2  46    7.0667   493.3    5.967      53.644
2015    2        7     2  51    7.0641   493.4    5.961      53.659
2015    2        7     2  56    7.0615   493.6    5.956      53.673
2015    2        7     3   1    7.0586   493.7    5.950      53.688
2015    2        7     3   7    7.0562   493.8    5.944      53.702
2015    2        7     3  12    7.0534   494.0    5.939      53.715
2015    2        7     3  17    7.0509   494.1    5.933      53.728
2015    2        7     3  22    7.0480   494.2    5.927      53.741
2015    2        7     3  27    7.0456   494.3    5.922      53.754
2015    2        7     3  33    7.0427   494.5    5.916      53.766
2015    2        7     3  38    7.0402   494.6    5.910      53.778
2015    2        7     3  43    7.0374   494.7    5.904      53.789
2015    2        7     3  48    7.0347   494.8    5.898      53.801
2015    2        7     3  54    7.0320   495.0    5.892      53.812
2015    2        7     3  59    7.0293   495.1    5.886      53.822
2015    2        7     4   4    7.0265   495.2    5.881      53.833
2015    2        7     4   9    7.0236   495.3    5.875      53.843
2015    2        7     4  14    7.0210   495.4    5.869      53.852
2015    2        7     4  20    7.0182   495.6    5.863      53.862
2015    2        7     4  25    7.0154   495.7    5.857      53.871
2015    2        7     4  30    7.0125   495.8    5.851      53.880
2015    2        7     4  35    7.0098   495.9    5.845      53.888
2015    2        7     4  41    7.0069   496.0    5.839      53.897
2015    2        7     4  46    7.0042   496.1    5.833      53.905
2015    2        7     4  51    7.0013   496.3    5.827      53.912
2015    2        7     4  56    6.9985   496.4    5.821      53.920
2015    2        7     5   1    6.9957   496.5    5.815      53.927
2015    2        7     5   7    6.9929   496.6    5.809      53.934
2015    2        7     5  12    6.9902   496.7    5.803      53.940
2015    2        7     5  17    6.9874   496.8    5.798      53.947
2015    2        7     5  22    6.9845   496.9    5.792      53.953
2015    2        7     5  28    6.9818   497.0    5.786      53.959
2015    2        7     5  33    6.9790   497.1    5.781      53.965
2015    2        7     5  38    6.9763   497.2    5.775      53.970
2015    2        7     5  43    6.9735   497.3    5.769      53.976
2015    2        7     5  48    6.9707   497.4    5.764      53.981
2015    2        7     5  54    6.9680   497.5    5.759      53.986
2015    2        7     5  59    6.9652   497.6    5.753      53.991
2015    2        7     6   4    6.9625   497.7    5.748      53.996
2015    2        7     6   9    6.9598   497.8    5.743      54.001
2015    2        7     6  15    6.9571   497.9    5.738      54.006
2015    2        7     6  20    6.9544   498.0    5.733      54.011
2015    2        7     6  25    6.9517   498.1    5.728      54.015
2015    2        7     6  30    6.9490   498.2    5.723      54.020
2015    2        7     6  35    6.9463   498.3    5.719      54.024
2015    2        7     6  41    6.9437   498.4    5.714      54.028
2015    2        7     6  46    6.9410   498.5    5.710      54.033
2015    2        7     6  51    6.9384   498.6    5.705      54.037
2015    2        7     6  56    6.9358   498.6    5.701      54.041
2015    2        7     7   1    6.9332   498.7    5.697      54.045
2015    2        7     7   7    6.9306   498.8    5.693      54.049
2015    2        7     7  12    6.9280   498.9    5.689      54.053
2015    2        7     7  17    6.9254   499.0    5.685      54.057
2015    2        7     7  22    6.9228   499.1    5.681      54.060
2015    2        7     7  28    6.9203   499.2    5.677      54.064
2015    2        7     7  33    6.9177   499.3    5.673      54.068
2015    2        7     7  38    6.9152   499.3    5.670      54.072
2015    2        7     7  43    6.9126   499.4    5.666      54.076
2015    2        7     7  48    6.9101   499.5    5.663      54.080
2015    2        7     7  54    6.9076   499.6    5.659      54.084
2015    2        7     7  59    6.9051   499.7    5.656      54.089
2015    2        7     8   4    6.9027   499.7    5.653      54.093
2015    2        7     8   9    6.9002   499.8    5.650      54.098
2015    2        7     8  15    6.8978   499.9    5.647      54.103
2015    2        7     8  20    6.8953   500.0    5.644      54.108
2015    2        7     8  25    6.8929   500.0    5.641      54.113
2015    2        7     8  30    6.8905   500.1    5.638      54.119
2015    2        7     8  35    6.8882   500.2    5.635      54.124
2015    2        7     8  41    6.8858   500.3    5.632      54.130
2015    2        7     8  46    6.8835   500.4    5.629      54.136
2015    2        7     8  51    6.8811   500.4    5.627      54.143
2015    2        7     8  56    6.8788   500.5    5.624      54.150
2015    2        7     9   2    6.8765   500.6    5.621      54.157
2015    2        7     9   7    6.8742   500.7    5.619      54.165
2015    2        7     9  12    6.8719   500.7    5.616      54.173
2015    2        7     9  17    6.8696   500.8    5.613      54.183
2015    2        7     9  22    6.8674   500.9    5.611      54.192
2015    2        7     9  28    6.8651   501.0    5.608      54.202
2015    2        7     9  33    6.8628   501.0    5.605      54.212
2015    2        7     9  38    6.8606   501.1    5.602      54.222
2015    2        7     9  43    6.8584   501.2    5.600      54.233
2015    2        7     9  48    6.8562   501.2    5.597      54.243
2015    2        7     9  54    6.8540   501.3    5.594      54.254
2015    2        7     9  59    6.8518   501.4    5.591      54.264
2015    2        7    10   4    6.8496   501.5    5.588      54.275
2015    2        7    10   9    6.8474   501.5    5.585      54.285
2015    2        7    10  15    6.8452   501.6    5.582      54.295
2015    2        7    10  20    6.8431   501.7    5.579      54.306
2015    2        7    10  25    6.8409   501.8    5.576      54.316
2015    2        7    10  30    6.8388   501.8    5.573      54.325
2015    2        7    10  35    6.8367   501.9    5.569      54.334
2015    2        7    10  41    6.8346   502.0    5.566      54.344
2015    2        7    10  46    6.8325   502.0    5.563      54.353
2015    2        7    10  51    6.8304   502.1    5.560      54.361
2015    2        7    10  56    6.8284   502.2    5.557      54.370
2015    2        7    11   2    6.8263   502.3    5.553      54.379
2015    2        7    11   7    6.8243   502.3    5.550      54.387
2015    2        7    11  12    6.8221   502.4    5.547      54.395
2015    2        7    11  17    6.8201   502.5    5.544      54.403
2015    2        7    11  22    6.8182   502.6    5.541      54.411
2015    2        7    11  28    6.8160   502.6    5.537      54.419
2015    2        7    11  33    6.8140   502.7    5.534      54.426
2015    2        7    11  38    6.8119   502.8    5.531      54.434
2015    2        7    11  43    6.8100   502.8    5.528      54.441
2015    2        7    11  49    6.8079   502.9    5.524      54.449
2015    2        7    11  54    6.8058   503.0    5.521      54.456
2015    2        7    11  59    6.8037   503.1    5.518      54.464
2015    2        7    12   4    6.8017   503.1    5.515      54.471
2015    2        7    12   9    6.7997   503.2    5.512      54.478
2015    2        7    12  15    6.7976   503.3    5.508      54.486
2015    2        7    12  20    6.7956   503.3    5.505      54.493
2015    2        7    12  25    6.7935   503.4    5.502      54.500
2015    2        7    12  30    6.7913   503.5    5.499      54.507
2015    2        7    12  35    6.7893   503.6    5.495      54.513
2015    2        7    12  41    6.7872   503.6    5.492      54.520
2015    2        7    12  46    6.7851   503.7    5.489      54.526
2015    2        7    12  51    6.7831   503.8    5.486      54.533
2015    2        7    12  56    6.7810   503.8    5.482      54.539
2015    2        7    13   2    6.7789   503.9    5.479      54.545
2015    2        7    13   7    6.7767   504.0    5.476      54.551
2015    2        7    13  12    6.7747   504.0    5.472      54.556
2015    2        7    13  17    6.7725   504.1    5.469      54.562
2015    2        7    13  22    6.7705   504.2    5.466      54.567
2015    2        7    13  28    6.7683   504.2    5.463      54.572
2015    2        7    13  33    6.7663   504.3    5.459      54.577
2015    2        7    13  38    6.7641   504.4    5.456      54.582
2015    2        7    13  43    6.7620   504.4    5.453      54.586
2015    2        7    13  49    6.7599   504.5    5.450      54.590
2015    2        7    13  54    6.7578   504.5    5.446      54.594
2015    2        7    13  59    6.7556   504.6    5.443      54.598
2015    2        7    14   4    6.7535   504.7    5.440      54.602
2015    2        7    14   9    6.7514   504.7    5.437      54.605
2015    2        7    14  15    6.7493   504.8    5.433      54.608
2015    2        7    14  20    6.7471   504.9    5.430      54.611
2015    2        7    14  25    6.7450   504.9    5.427      54.613
2015    2        7    14  30    6.7428   505.0    5.424      54.616
2015    2        7    14  36    6.7408   505.0    5.421      54.618
2015    2        7    14  41    6.7386   505.1    5.417      54.620
2015    2        7    14  46    6.7365   505.1    5.414      54.623
2015    2        7    14  51    6.7344   505.2    5.411      54.625
2015    2        7    14  56    6.7322   505.3    5.408      54.627
2015    2        7    15   2    6.7302   505.3    5.405      54.629
2015    2        7    15   7    6.7281   505.4    5.402      54.631
2015    2        7    15  12    6.7260   505.4    5.399      54.633
2015    2        7    15  17    6.7239   505.5    5.397      54.635
2015    2        7    15  23    6.7219   505.5    5.394      54.637
2015    2        7    15  28    6.7199   505.6    5.391      54.639
2015    2        7    15  33    6.7178   505.6    5.388      54.642
2015    2        7    15  38    6.7159   505.7    5.386      54.644
2015    2        7    15  43    6.7138   505.7    5.383      54.647
2015    2        7    15  49    6.7119   505.8    5.381      54.650
2015    2        7    15  54    6.7099   505.9    5.378      54.654
2015    2        7    15  59    6.7080   505.9    5.376      54.657
2015    2        7    16   4    6.7061   506.0    5.374      54.661
2015    2        7    16   9    6.7042   506.0    5.371      54.665
2015    2        7    16  15    6.7023   506.1    5.369      54.670
2015    2        7    16  20    6.7005   506.1    5.367      54.675
2015    2        7    16  25    6.6986   506.2    5.365      54.680
2015    2        7    16  30    6.6968   506.2    5.363      54.686
2015    2        7    16  36    6.6951   506.3    5.361      54.692
2015    2        7    16  41    6.6932   506.3    5.359      54.699
2015    2        7    16  46    6.6915   506.4    5.357      54.705
2015    2        7    16  51    6.6898   506.4    5.355      54.712
2015    2        7    16  56    6.6881   506.5    5.353      54.718
2015    2        7    17   2    6.6864   506.5    5.351      54.725
2015    2        7    17   7    6.6846   506.6    5.349      54.732
2015    2        7    17  12    6.6829   506.6    5.347      54.738
2015    2        7    17  17    6.6812   506.7    5.344      54.745
2015    2        7    17  23    6.6795   506.8    5.342      54.752
2015    2        7    17  28    6.6778   506.8    5.340      54.758
2015    2        7    17  33    6.6761   506.9    5.338      54.764
2015    2        7    17  38    6.6745   506.9    5.336      54.770
2015    2        7    17  43    6.6728   507.0    5.333      54.776
2015    2        7    17  49    6.6711   507.0    5.331      54.782
2015    2        7    17  54    6.6693   507.1    5.329      54.788
2015    2        7    17  59    6.6677   507.1    5.327      54.794
2015    2        7    18   4    6.6659   507.2    5.324      54.799
2015    2        7    18  10    6.6643   507.2    5.322      54.805
2015    2        7    18  15    6.6625   507.3    5.320      54.812
2015    2        7    18  20    6.6608   507.3    5.318      54.818
2015    2        7    18  25    6.6591   507.4    5.315      54.824
2015    2        7    18  30    6.6573   507.4    5.313      54.831
2015    2        7    18  36    6.6556   507.5    5.310      54.837
2015    2        7    18  41    6.6539   507.6    5.308      54.843
2015    2        7    18  46    6.6521   507.6    5.305      54.850
2015    2        7    18  51    6.6503   507.7    5.303      54.856
2015    2        7    18  56    6.6485   507.7    5.300      54.862
2015    2        7    19   2    6.6467   507.8    5.298      54.867
2015    2        7    19   7    6.6448   507.8    5.295      54.873
2015    2        7    19  12    6.6430   507.9    5.292      54.878
2015    2        7    19  17    6.6412   507.9    5.290      54.884
2015    2        7    19  23    6.6394   508.0    5.287      54.888
2015    2        7    19  28    6.6375   508.0    5.284      54.893
2015    2        7    19  33    6.6357   508.1    5.282      54.897
2015    2        7    19  38    6.6337   508.1    5.279      54.901
2015    2        7    19  43    6.6319   508.2    5.276      54.904
2015    2        7    19  49    6.6300   508.2    5.273      54.907
2015    2        7    19  54    6.6282   508.3    5.270      54.910
2015    2        7    19  59    6.6263   508.3    5.267      54.913
2015    2        7    20   4    6.6245   508.4    5.265      54.915
2015    2        7    20  10    6.6226   508.4    5.262      54.917
2015    2        7    20  15    6.6207   508.5    5.259      54.919
2015    2        7    20  20    6.6188   508.5    5.256      54.921
2015    2        7    20  25    6.6170   508.5    5.253      54.922
2015    2        7    20  30    6.6151   508.6    5.250      54.924
2015    2        7    20  36    6.6132   508.6    5.247      54.925
2015    2        7    20  41    6.6114   508.7    5.244      54.926
2015    2        7    20  46    6.6096   508.7    5.241      54.927
2015    2        7    20  51    6.6077   508.8    5.239      54.928
2015    2        7    20  57    6.6058   508.8    5.236      54.928
2015    2        7    21   2    6.6040   508.8    5.233      54.929
2015    2        7    21   7    6.6021   508.9    5.230      54.929
2015    2        7    21  12    6.6003   508.9    5.227      54.929
2015    2        7    21  17    6.5984   509.0    5.224      54.929
2015    2        7    21  23    6.5966   509.0    5.222      54.929
2015    2        7    21  28    6.5948   509.0    5.219      54.929
2015    2        7    21  33    6.5929   509.1    5.216      54.929
2015    2        7    21  38    6.5911   509.1    5.214      54.929
2015    2        7    21  44    6.5893   509.1    5.211      54.929
2015    2        7    21  49    6.5875   509.2    5.208      54.929
2015    2        7    21  54    6.5857   509.2    5.206      54.928
2015    2        7    21  59    6.5839   509.2    5.203      54.928
2015    2        7    22   4    6.5821   509.3    5.201      54.928
2015    2        7    22  10    6.5804   509.3    5.198      54.928
2015    2        7    22  15    6.5786   509.3    5.196      54.927
2015    2        7    22  20    6.5768   509.4    5.194      54.927
2015    2        7    22  25    6.5751   509.4    5.192      54.927
2015    2        7    22  30    6.5733   509.4    5.189      54.927
2015    2        7    22  36    6.5716   509.5    5.187      54.927
2015    2        7    22  41    6.5698   509.5    5.185      54.927
2015    2        7    22  46    6.5682   509.5    5.183      54.927
2015    2        7    22  51    6.5664   509.5    5.181      54.928
2015    2        7    22  57    6.5648   509.6    5.179      54.928
2015    2        7    23   2    6.5631   509.6    5.177      54.929
2015    2        7    23   7    6.5614   509.6    5.175      54.930
2015    2        7    23  12    6.5598   509.7    5.173      54.931
2015    2        7    23  17    6.5582   509.7    5.171      54.932
2015    2        7    23  23    6.5565   509.7    5.169      54.933
2015    2        7    23  28    6.5549   509.7    5.167      54.935
2015    2        7    23  33    6.5533   509.8    5.165      54.936
2015    2        7    23  38    6.5517   509.8    5.163      54.938
2015    2        7    23  44    6.5501   509.8    5.162      54.939
2015    2        7    23  49    6.5486   509.8    5.160      54.941
2015    2        7    23  54    6.5470   509.9    5.158      54.943
2015    2        7    23  59    6.5455   509.9    5.156      54.945
2015    2        8     0   4    6.5440   509.9    5.155      54.947
2015    2        8     0  10    6.5425   509.9    5.153      54.950
2015    2        8     0  15    6.5410   510.0    5.151      54.953
2015    2        8     0  20    6.5396   510.0    5.149      54.956
2015    2        8     0  25    6.5381   510.0    5.148      54.958
2015    2        8     0  31    6.5367   510.1    5.146      54.961
2015    2        8     0  36    6.5353   510.1    5.144      54.963
2015    2        8     0  41    6.5338   510.1    5.142      54.966
2015    2        8     0  46    6.5324   510.1    5.140      54.968
2015    2        8     0  51    6.5310   510.2    5.138      54.969
2015    2        8     0  57    6.5296   510.2    5.136      54.971
2015    2        8     1   2    6.5281   510.2    5.135      54.973
2015    2        8     1   7    6.5267   510.2    5.133      54.974
2015    2        8     1  12    6.5252   510.3    5.130      54.975
2015    2        8     1  17    6.5238   510.3    5.128      54.975
2015    2        8     1  23    6.5224   510.3    5.126      54.975
