year    month   day   hour  minute  B_enl V_enl   n_enl       T_enl
[year] [month] [day] [hour][minute] [nT]  [km/s]  [cm-3]      [kK]
2015    3        1     0   3    4.4603   618.7    2.777      52.447
2015    3        1     0   8    4.4581   618.5    2.777      52.404
2015    3        1     0  13    4.4559   618.3    2.777      52.360
2015    3        1     0  17    4.4537   618.1    2.778      52.316
2015    3        1     0  22    4.4516   617.9    2.778      52.273
2015    3        1     0  27    4.4494   617.7    2.778      52.229
2015    3        1     0  32    4.4473   617.5    2.779      52.186
2015    3        1     0  36    4.4451   617.3    2.779      52.143
2015    3        1     0  41    4.4430   617.1    2.779      52.100
2015    3        1     0  46    4.4409   616.9    2.780      52.057
2015    3        1     0  50    4.4388   616.7    2.780      52.014
2015    3        1     0  55    4.4368   616.5    2.780      51.972
2015    3        1     1   0    4.4347   616.3    2.781      51.929
2015    3        1     1   4    4.4327   616.1    2.781      51.887
2015    3        1     1   9    4.4306   615.9    2.781      51.844
2015    3        1     1  13    4.4286   615.7    2.782      51.801
2015    3        1     1  18    4.4265   615.5    2.782      51.758
2015    3        1     1  22    4.4245   615.3    2.782      51.715
2015    3        1     1  27    4.4224   615.1    2.783      51.672
2015    3        1     1  32    4.4204   614.9    2.783      51.628
2015    3        1     1  36    4.4184   614.7    2.783      51.585
2015    3        1     1  41    4.4163   614.5    2.784      51.541
2015    3        1     1  45    4.4143   614.3    2.784      51.497
2015    3        1     1  50    4.4122   614.1    2.784      51.453
2015    3        1     1  54    4.4102   613.9    2.784      51.409
2015    3        1     1  59    4.4081   613.7    2.784      51.365
2015    3        1     2   4    4.4061   613.5    2.785      51.320
2015    3        1     2   8    4.4040   613.3    2.785      51.275
2015    3        1     2  13    4.4019   613.1    2.785      51.230
2015    3        1     2  17    4.3999   612.9    2.785      51.185
2015    3        1     2  22    4.3978   612.7    2.785      51.141
2015    3        1     2  26    4.3957   612.5    2.785      51.095
2015    3        1     2  31    4.3936   612.3    2.785      51.050
2015    3        1     2  35    4.3916   612.1    2.785      51.004
2015    3        1     2  40    4.3895   612.0    2.785      50.958
2015    3        1     2  45    4.3874   611.8    2.785      50.912
2015    3        1     2  49    4.3853   611.6    2.785      50.866
2015    3        1     2  54    4.3832   611.4    2.785      50.820
2015    3        1     2  58    4.3811   611.2    2.785      50.774
2015    3        1     3   3    4.3790   611.0    2.785      50.727
2015    3        1     3   7    4.3769   610.8    2.785      50.680
2015    3        1     3  12    4.3748   610.6    2.784      50.633
2015    3        1     3  17    4.3726   610.4    2.784      50.586
2015    3        1     3  21    4.3705   610.2    2.784      50.538
2015    3        1     3  26    4.3684   610.0    2.784      50.489
2015    3        1     3  30    4.3662   609.8    2.784      50.441
2015    3        1     3  35    4.3640   609.6    2.783      50.392
2015    3        1     3  40    4.3619   609.4    2.783      50.343
2015    3        1     3  44    4.3598   609.2    2.783      50.294
2015    3        1     3  49    4.3576   609.0    2.782      50.244
2015    3        1     3  53    4.3554   608.8    2.782      50.194
2015    3        1     3  58    4.3533   608.6    2.782      50.144
2015    3        1     4   3    4.3511   608.4    2.781      50.094
2015    3        1     4   7    4.3490   608.2    2.781      50.043
2015    3        1     4  12    4.3468   608.0    2.780      49.992
2015    3        1     4  16    4.3446   607.7    2.780      49.941
2015    3        1     4  21    4.3425   607.5    2.779      49.889
2015    3        1     4  26    4.3404   607.3    2.779      49.837
2015    3        1     4  30    4.3382   607.1    2.778      49.785
2015    3        1     4  35    4.3360   606.9    2.778      49.733
2015    3        1     4  39    4.3339   606.7    2.777      49.681
2015    3        1     4  44    4.3318   606.5    2.777      49.628
2015    3        1     4  49    4.3296   606.3    2.776      49.574
2015    3        1     4  53    4.3274   606.1    2.776      49.520
2015    3        1     4  58    4.3252   605.8    2.775      49.465
2015    3        1     5   3    4.3230   605.6    2.775      49.409
2015    3        1     5   8    4.3209   605.4    2.774      49.354
2015    3        1     5  12    4.3186   605.2    2.773      49.299
2015    3        1     5  17    4.3165   604.9    2.773      49.244
2015    3        1     5  22    4.3143   604.7    2.772      49.188
2015    3        1     5  27    4.3121   604.5    2.772      49.133
2015    3        1     5  32    4.3101   604.3    2.771      49.077
2015    3        1     5  36    4.3079   604.0    2.771      49.021
2015    3        1     5  41    4.3058   603.8    2.770      48.966
2015    3        1     5  46    4.3037   603.6    2.770      48.910
2015    3        1     5  51    4.3016   603.3    2.769      48.855
2015    3        1     5  56    4.2995   603.1    2.768      48.800
2015    3        1     6   1    4.2974   602.8    2.768      48.745
2015    3        1     6   5    4.2953   602.6    2.768      48.690
2015    3        1     6  10    4.2932   602.4    2.767      48.635
2015    3        1     6  15    4.2911   602.1    2.767      48.580
2015    3        1     6  20    4.2891   601.9    2.766      48.524
2015    3        1     6  25    4.2871   601.6    2.766      48.469
2015    3        1     6  30    4.2850   601.4    2.765      48.414
2015    3        1     6  35    4.2829   601.1    2.765      48.358
2015    3        1     6  40    4.2809   600.9    2.765      48.301
2015    3        1     6  45    4.2788   600.6    2.764      48.244
2015    3        1     6  50    4.2768   600.4    2.764      48.186
2015    3        1     6  55    4.2747   600.1    2.764      48.129
2015    3        1     7   0    4.2727   599.8    2.764      48.071
2015    3        1     7   5    4.2705   599.6    2.763      48.014
2015    3        1     7  10    4.2685   599.3    2.763      47.956
2015    3        1     7  15    4.2665   599.0    2.763      47.898
2015    3        1     7  20    4.2645   598.7    2.763      47.840
2015    3        1     7  25    4.2624   598.5    2.763      47.783
2015    3        1     7  30    4.2605   598.2    2.763      47.725
2015    3        1     7  35    4.2584   597.9    2.762      47.667
2015    3        1     7  41    4.2565   597.6    2.762      47.609
2015    3        1     7  46    4.2544   597.4    2.762      47.550
2015    3        1     7  51    4.2524   597.1    2.762      47.492
2015    3        1     7  56    4.2504   596.8    2.762      47.434
2015    3        1     8   1    4.2485   596.5    2.762      47.375
2015    3        1     8   6    4.2465   596.2    2.763      47.317
2015    3        1     8  11    4.2445   595.9    2.763      47.258
2015    3        1     8  17    4.2425   595.6    2.763      47.200
2015    3        1     8  22    4.2405   595.4    2.763      47.142
2015    3        1     8  27    4.2385   595.1    2.763      47.083
2015    3        1     8  32    4.2366   594.8    2.764      47.025
2015    3        1     8  37    4.2346   594.5    2.764      46.967
2015    3        1     8  43    4.2326   594.2    2.764      46.909
2015    3        1     8  48    4.2307   593.9    2.765      46.852
2015    3        1     8  53    4.2287   593.6    2.765      46.794
2015    3        1     8  58    4.2268   593.3    2.765      46.736
2015    3        1     9   3    4.2248   593.0    2.766      46.679
2015    3        1     9   9    4.2229   592.7    2.766      46.621
2015    3        1     9  14    4.2209   592.4    2.767      46.564
2015    3        1     9  19    4.2190   592.1    2.768      46.508
2015    3        1     9  24    4.2170   591.8    2.768      46.451
2015    3        1     9  29    4.2151   591.5    2.769      46.395
2015    3        1     9  35    4.2131   591.2    2.770      46.339
2015    3        1     9  40    4.2112   590.9    2.771      46.283
2015    3        1     9  45    4.2092   590.6    2.771      46.228
2015    3        1     9  50    4.2073   590.3    2.772      46.173
2015    3        1     9  56    4.2053   590.0    2.773      46.118
2015    3        1    10   1    4.2034   589.7    2.774      46.064
2015    3        1    10   6    4.2015   589.4    2.775      46.009
2015    3        1    10  12    4.1995   589.1    2.776      45.955
2015    3        1    10  17    4.1975   588.8    2.777      45.901
2015    3        1    10  22    4.1955   588.5    2.778      45.848
2015    3        1    10  27    4.1936   588.2    2.780      45.795
2015    3        1    10  33    4.1916   587.9    2.781      45.742
2015    3        1    10  38    4.1896   587.6    2.782      45.688
2015    3        1    10  43    4.1876   587.3    2.783      45.635
2015    3        1    10  49    4.1856   587.0    2.784      45.582
2015    3        1    10  54    4.1835   586.7    2.785      45.529
2015    3        1    10  59    4.1815   586.4    2.787      45.475
2015    3        1    11   5    4.1795   586.1    2.788      45.421
2015    3        1    11  10    4.1774   585.8    2.789      45.367
2015    3        1    11  15    4.1754   585.4    2.790      45.312
2015    3        1    11  21    4.1733   585.1    2.791      45.257
2015    3        1    11  26    4.1713   584.8    2.792      45.202
2015    3        1    11  31    4.1692   584.5    2.793      45.147
2015    3        1    11  37    4.1672   584.2    2.795      45.091
2015    3        1    11  42    4.1651   583.9    2.796      45.035
2015    3        1    11  48    4.1630   583.6    2.797      44.978
2015    3        1    11  53    4.1610   583.3    2.798      44.922
2015    3        1    11  58    4.1589   582.9    2.799      44.865
2015    3        1    12   4    4.1569   582.6    2.800      44.808
2015    3        1    12   9    4.1549   582.3    2.801      44.751
2015    3        1    12  14    4.1529   582.0    2.802      44.694
2015    3        1    12  20    4.1508   581.7    2.803      44.637
2015    3        1    12  25    4.1489   581.3    2.804      44.580
2015    3        1    12  31    4.1469   581.0    2.805      44.522
2015    3        1    12  36    4.1449   580.7    2.806      44.465
2015    3        1    12  41    4.1430   580.4    2.807      44.409
2015    3        1    12  47    4.1411   580.1    2.808      44.352
2015    3        1    12  52    4.1392   579.7    2.809      44.296
2015    3        1    12  57    4.1373   579.4    2.810      44.240
2015    3        1    13   3    4.1355   579.1    2.811      44.184
2015    3        1    13   8    4.1337   578.7    2.812      44.128
2015    3        1    13  14    4.1319   578.4    2.813      44.073
2015    3        1    13  19    4.1302   578.1    2.815      44.018
2015    3        1    13  24    4.1284   577.8    2.816      43.964
2015    3        1    13  30    4.1267   577.4    2.817      43.909
2015    3        1    13  35    4.1250   577.1    2.818      43.855
2015    3        1    13  40    4.1234   576.8    2.819      43.802
2015    3        1    13  46    4.1217   576.4    2.820      43.749
2015    3        1    13  51    4.1201   576.1    2.822      43.696
2015    3        1    13  57    4.1184   575.8    2.823      43.643
2015    3        1    14   2    4.1169   575.5    2.824      43.590
2015    3        1    14   7    4.1152   575.1    2.825      43.538
2015    3        1    14  13    4.1137   574.8    2.827      43.486
2015    3        1    14  18    4.1121   574.5    2.828      43.433
2015    3        1    14  23    4.1104   574.1    2.829      43.380
2015    3        1    14  29    4.1088   573.8    2.830      43.327
2015    3        1    14  34    4.1072   573.5    2.831      43.274
2015    3        1    14  40    4.1056   573.1    2.832      43.220
2015    3        1    14  45    4.1040   572.8    2.834      43.166
2015    3        1    14  50    4.1024   572.5    2.835      43.111
2015    3        1    14  56    4.1007   572.1    2.836      43.056
2015    3        1    15   1    4.0991   571.8    2.837      43.001
2015    3        1    15   6    4.0975   571.4    2.838      42.945
2015    3        1    15  12    4.0959   571.1    2.839      42.889
2015    3        1    15  17    4.0943   570.7    2.840      42.832
2015    3        1    15  23    4.0926   570.4    2.841      42.775
2015    3        1    15  28    4.0911   570.0    2.842      42.718
2015    3        1    15  33    4.0894   569.7    2.842      42.660
2015    3        1    15  39    4.0879   569.3    2.843      42.602
2015    3        1    15  44    4.0863   568.9    2.844      42.544
2015    3        1    15  49    4.0847   568.6    2.845      42.486
2015    3        1    15  55    4.0831   568.2    2.846      42.428
2015    3        1    16   0    4.0816   567.9    2.847      42.369
2015    3        1    16   6    4.0801   567.5    2.848      42.310
2015    3        1    16  11    4.0786   567.1    2.849      42.252
2015    3        1    16  16    4.0771   566.8    2.850      42.193
2015    3        1    16  22    4.0755   566.4    2.851      42.134
2015    3        1    16  27    4.0740   566.0    2.852      42.076
2015    3        1    16  32    4.0726   565.7    2.853      42.017
2015    3        1    16  38    4.0710   565.3    2.854      41.959
2015    3        1    16  43    4.0696   564.9    2.855      41.900
2015    3        1    16  49    4.0682   564.6    2.856      41.842
2015    3        1    16  54    4.0667   564.2    2.858      41.784
2015    3        1    16  59    4.0653   563.8    2.859      41.726
2015    3        1    17   5    4.0639   563.5    2.860      41.669
2015    3        1    17  10    4.0625   563.1    2.862      41.611
2015    3        1    17  16    4.0610   562.7    2.863      41.554
2015    3        1    17  21    4.0597   562.3    2.864      41.497
2015    3        1    17  26    4.0583   562.0    2.866      41.440
2015    3        1    17  32    4.0569   561.6    2.868      41.383
2015    3        1    17  37    4.0555   561.2    2.869      41.326
2015    3        1    17  42    4.0542   560.9    2.871      41.270
2015    3        1    17  48    4.0529   560.5    2.873      41.214
2015    3        1    17  53    4.0515   560.1    2.875      41.157
2015    3        1    17  59    4.0502   559.7    2.876      41.102
2015    3        1    18   4    4.0488   559.3    2.878      41.046
2015    3        1    18   9    4.0476   559.0    2.880      40.990
2015    3        1    18  15    4.0462   558.6    2.882      40.935
2015    3        1    18  20    4.0450   558.2    2.885      40.880
2015    3        1    18  25    4.0437   557.8    2.887      40.824
2015    3        1    18  31    4.0424   557.4    2.889      40.770
2015    3        1    18  36    4.0412   557.1    2.891      40.715
2015    3        1    18  42    4.0400   556.7    2.894      40.660
2015    3        1    18  47    4.0388   556.3    2.896      40.606
2015    3        1    18  52    4.0376   555.9    2.899      40.552
2015    3        1    18  58    4.0365   555.5    2.901      40.498
2015    3        1    19   3    4.0353   555.1    2.904      40.445
2015    3        1    19   8    4.0341   554.7    2.906      40.391
2015    3        1    19  14    4.0330   554.3    2.909      40.339
2015    3        1    19  19    4.0320   554.0    2.912      40.286
2015    3        1    19  25    4.0309   553.6    2.915      40.234
2015    3        1    19  30    4.0298   553.2    2.918      40.182
2015    3        1    19  35    4.0289   552.8    2.921      40.130
2015    3        1    19  41    4.0279   552.4    2.924      40.079
2015    3        1    19  46    4.0270   552.0    2.927      40.029
2015    3        1    19  51    4.0260   551.6    2.930      39.979
2015    3        1    19  57    4.0251   551.2    2.933      39.929
2015    3        1    20   2    4.0243   550.8    2.936      39.880
2015    3        1    20   8    4.0234   550.4    2.939      39.831
2015    3        1    20  13    4.0226   550.1    2.943      39.783
2015    3        1    20  18    4.0217   549.7    2.946      39.735
2015    3        1    20  24    4.0210   549.3    2.949      39.688
2015    3        1    20  29    4.0203   548.9    2.953      39.641
2015    3        1    20  34    4.0195   548.5    2.956      39.595
2015    3        1    20  40    4.0189   548.1    2.960      39.549
2015    3        1    20  45    4.0182   547.7    2.963      39.504
2015    3        1    20  51    4.0176   547.3    2.967      39.459
2015    3        1    20  56    4.0170   547.0    2.971      39.414
2015    3        1    21   1    4.0164   546.6    2.974      39.370
2015    3        1    21   7    4.0159   546.2    2.978      39.327
2015    3        1    21  12    4.0153   545.8    2.982      39.284
2015    3        1    21  18    4.0147   545.4    2.985      39.241
2015    3        1    21  23    4.0142   545.1    2.989      39.198
2015    3        1    21  28    4.0136   544.7    2.993      39.155
2015    3        1    21  34    4.0130   544.3    2.997      39.112
2015    3        1    21  39    4.0126   543.9    3.000      39.069
2015    3        1    21  44    4.0120   543.6    3.004      39.026
2015    3        1    21  50    4.0114   543.2    3.008      38.983
2015    3        1    21  55    4.0109   542.8    3.012      38.940
2015    3        1    22   1    4.0104   542.4    3.016      38.896
2015    3        1    22   6    4.0099   542.0    3.019      38.853
2015    3        1    22  11    4.0095   541.6    3.023      38.809
2015    3        1    22  17    4.0090   541.3    3.027      38.765
2015    3        1    22  22    4.0086   540.9    3.030      38.721
2015    3        1    22  27    4.0081   540.5    3.034      38.676
2015    3        1    22  33    4.0078   540.1    3.038      38.632
2015    3        1    22  38    4.0074   539.7    3.042      38.587
2015    3        1    22  44    4.0070   539.4    3.045      38.543
2015    3        1    22  49    4.0067   539.0    3.049      38.498
2015    3        1    22  54    4.0064   538.6    3.053      38.453
2015    3        1    23   0    4.0062   538.2    3.056      38.408
2015    3        1    23   5    4.0058   537.8    3.060      38.363
2015    3        1    23  10    4.0057   537.4    3.064      38.317
2015    3        1    23  16    4.0055   537.1    3.068      38.272
2015    3        1    23  21    4.0053   536.7    3.071      38.226
2015    3        1    23  27    4.0052   536.3    3.075      38.181
2015    3        1    23  32    4.0049   535.9    3.079      38.135
2015    3        1    23  37    4.0049   535.5    3.083      38.089
2015    3        1    23  43    4.0048   535.2    3.087      38.042
2015    3        1    23  48    4.0047   534.8    3.090      37.996
2015    3        1    23  53    4.0045   534.4    3.094      37.949
2015    3        1    23  59    4.0045   534.0    3.098      37.903
2015    3        2     0   4    4.0045   533.6    3.102      37.856
2015    3        2     0  10    4.0046   533.3    3.105      37.809
2015    3        2     0  15    4.0046   532.9    3.109      37.761
2015    3        2     0  20    4.0046   532.5    3.113      37.714
2015    3        2     0  26    4.0045   532.1    3.117      37.666
2015    3        2     0  31    4.0045   531.7    3.121      37.618
2015    3        2     0  36    4.0046   531.4    3.125      37.570
2015    3        2     0  42    4.0048   531.0    3.128      37.521
2015    3        2     0  47    4.0049   530.6    3.132      37.473
2015    3        2     0  53    4.0049   530.2    3.136      37.424
2015    3        2     0  58    4.0050   529.8    3.140      37.375
