year    month   day   hour  minute  B_enl V_enl   n_enl       T_enl
[year] [month] [day] [hour][minute] [nT]  [km/s]  [cm-3]      [kK]
2015    2       20     0   0    6.9180   473.5    7.073      55.629
2015    2       20     0   5    6.9223   473.6    7.073      55.685
2015    2       20     0  10    6.9270   473.8    7.074      55.744
2015    2       20     0  15    6.9314   474.0    7.075      55.804
2015    2       20     0  20    6.9361   474.1    7.076      55.865
2015    2       20     0  26    6.9408   474.3    7.077      55.929
2015    2       20     0  31    6.9455   474.5    7.079      55.994
2015    2       20     0  36    6.9505   474.7    7.081      56.062
2015    2       20     0  41    6.9553   474.8    7.083      56.132
2015    2       20     0  46    6.9602   475.0    7.086      56.205
2015    2       20     0  52    6.9650   475.2    7.088      56.281
2015    2       20     0  57    6.9699   475.4    7.091      56.359
2015    2       20     1   2    6.9746   475.6    7.094      56.439
2015    2       20     1   7    6.9794   475.8    7.097      56.522
2015    2       20     1  12    6.9841   476.0    7.100      56.605
2015    2       20     1  18    6.9887   476.2    7.104      56.690
2015    2       20     1  23    6.9933   476.4    7.107      56.776
2015    2       20     1  28    6.9978   476.6    7.110      56.861
2015    2       20     1  33    7.0021   476.8    7.113      56.948
2015    2       20     1  38    7.0064   477.0    7.116      57.035
2015    2       20     1  44    7.0106   477.2    7.119      57.121
2015    2       20     1  49    7.0148   477.4    7.122      57.207
2015    2       20     1  54    7.0186   477.6    7.124      57.292
2015    2       20     1  59    7.0226   477.8    7.127      57.376
2015    2       20     2   4    7.0264   478.0    7.129      57.459
2015    2       20     2  10    7.0301   478.2    7.131      57.540
2015    2       20     2  15    7.0338   478.4    7.133      57.620
2015    2       20     2  20    7.0373   478.6    7.135      57.699
2015    2       20     2  25    7.0408   478.8    7.136      57.777
2015    2       20     2  30    7.0442   479.0    7.138      57.853
2015    2       20     2  36    7.0476   479.2    7.139      57.928
2015    2       20     2  41    7.0509   479.4    7.141      58.002
2015    2       20     2  46    7.0541   479.6    7.142      58.074
2015    2       20     2  51    7.0573   479.7    7.143      58.146
2015    2       20     2  56    7.0603   479.9    7.143      58.216
2015    2       20     3   2    7.0634   480.1    7.144      58.286
2015    2       20     3   7    7.0665   480.3    7.145      58.354
2015    2       20     3  12    7.0695   480.5    7.145      58.422
2015    2       20     3  17    7.0725   480.7    7.146      58.488
2015    2       20     3  22    7.0755   480.9    7.146      58.553
2015    2       20     3  28    7.0784   481.1    7.146      58.618
2015    2       20     3  33    7.0813   481.2    7.146      58.682
2015    2       20     3  38    7.0842   481.4    7.147      58.745
2015    2       20     3  43    7.0871   481.6    7.147      58.808
2015    2       20     3  48    7.0899   481.8    7.147      58.870
2015    2       20     3  54    7.0930   482.0    7.147      58.933
2015    2       20     3  59    7.0958   482.2    7.147      58.995
2015    2       20     4   4    7.0989   482.3    7.148      59.059
2015    2       20     4   9    7.1019   482.5    7.148      59.123
2015    2       20     4  14    7.1051   482.7    7.149      59.186
2015    2       20     4  20    7.1083   482.9    7.150      59.250
2015    2       20     4  25    7.1116   483.1    7.152      59.318
2015    2       20     4  30    7.1151   483.3    7.153      59.388
2015    2       20     4  35    7.1187   483.5    7.155      59.462
2015    2       20     4  40    7.1224   483.7    7.157      59.539
2015    2       20     4  46    7.1262   483.9    7.159      59.617
2015    2       20     4  51    7.1300   484.1    7.161      59.699
2015    2       20     4  56    7.1338   484.4    7.162      59.782
2015    2       20     5   1    7.1377   484.6    7.164      59.866
2015    2       20     5   6    7.1415   484.9    7.165      59.951
2015    2       20     5  12    7.1453   485.2    7.167      60.035
2015    2       20     5  17    7.1492   485.4    7.167      60.119
2015    2       20     5  22    7.1527   485.7    7.168      60.202
2015    2       20     5  27    7.1562   486.0    7.168      60.285
2015    2       20     5  32    7.1597   486.3    7.167      60.367
2015    2       20     5  38    7.1629   486.6    7.166      60.445
2015    2       20     5  43    7.1661   486.8    7.165      60.522
2015    2       20     5  48    7.1691   487.1    7.163      60.595
2015    2       20     5  53    7.1719   487.4    7.161      60.666
2015    2       20     5  58    7.1747   487.7    7.158      60.734
2015    2       20     6   4    7.1773   488.0    7.155      60.801
2015    2       20     6   9    7.1799   488.2    7.151      60.865
2015    2       20     6  14    7.1824   488.5    7.148      60.928
2015    2       20     6  19    7.1848   488.8    7.143      60.989
2015    2       20     6  24    7.1871   489.1    7.139      61.049
2015    2       20     6  30    7.1895   489.4    7.135      61.107
2015    2       20     6  35    7.1918   489.6    7.130      61.165
2015    2       20     6  40    7.1941   489.9    7.125      61.221
2015    2       20     6  45    7.1963   490.2    7.120      61.277
2015    2       20     6  50    7.1985   490.5    7.115      61.332
2015    2       20     6  56    7.2007   490.8    7.110      61.387
2015    2       20     7   1    7.2029   491.1    7.105      61.441
2015    2       20     7   6    7.2051   491.3    7.100      61.495
2015    2       20     7  11    7.2073   491.6    7.095      61.549
2015    2       20     7  16    7.2096   491.9    7.090      61.603
2015    2       20     7  22    7.2117   492.2    7.085      61.657
2015    2       20     7  27    7.2140   492.5    7.080      61.711
2015    2       20     7  32    7.2163   492.8    7.075      61.766
2015    2       20     7  37    7.2186   493.1    7.070      61.821
2015    2       20     7  42    7.2208   493.3    7.065      61.877
2015    2       20     7  48    7.2232   493.6    7.061      61.934
2015    2       20     7  53    7.2255   493.9    7.056      61.992
2015    2       20     7  58    7.2278   494.2    7.052      62.052
2015    2       20     8   3    7.2301   494.5    7.047      62.113
2015    2       20     8   8    7.2323   494.8    7.043      62.176
2015    2       20     8  14    7.2343   495.1    7.039      62.240
2015    2       20     8  19    7.2365   495.4    7.035      62.305
2015    2       20     8  24    7.2387   495.7    7.031      62.370
2015    2       20     8  29    7.2406   496.0    7.027      62.437
2015    2       20     8  34    7.2426   496.3    7.024      62.504
2015    2       20     8  40    7.2447   496.6    7.020      62.571
2015    2       20     8  45    7.2465   496.9    7.016      62.640
2015    2       20     8  50    7.2485   497.2    7.013      62.710
2015    2       20     8  55    7.2503   497.5    7.009      62.779
2015    2       20     9   0    7.2521   497.8    7.006      62.847
2015    2       20     9   6    7.2539   498.1    7.003      62.917
2015    2       20     9  11    7.2556   498.5    7.000      62.989
2015    2       20     9  16    7.2573   498.8    6.997      63.063
2015    2       20     9  21    7.2589   499.1    6.994      63.138
2015    2       20     9  26    7.2606   499.4    6.992      63.214
2015    2       20     9  32    7.2621   499.7    6.989      63.291
2015    2       20     9  37    7.2636   500.1    6.986      63.368
2015    2       20     9  42    7.2650   500.4    6.983      63.445
2015    2       20     9  47    7.2662   500.7    6.980      63.522
2015    2       20     9  52    7.2675   501.1    6.976      63.598
2015    2       20     9  58    7.2687   501.4    6.972      63.673
2015    2       20    10   3    7.2697   501.7    6.968      63.747
2015    2       20    10   8    7.2706   502.1    6.964      63.820
2015    2       20    10  13    7.2714   502.4    6.959      63.891
2015    2       20    10  18    7.2720   502.8    6.954      63.959
2015    2       20    10  24    7.2726   503.1    6.948      64.023
2015    2       20    10  29    7.2729   503.4    6.942      64.085
2015    2       20    10  34    7.2733   503.8    6.936      64.144
2015    2       20    10  39    7.2736   504.1    6.929      64.200
2015    2       20    10  44    7.2736   504.5    6.922      64.253
2015    2       20    10  50    7.2738   504.8    6.915      64.303
2015    2       20    10  55    7.2736   505.1    6.908      64.351
2015    2       20    11   0    7.2735   505.5    6.900      64.397
2015    2       20    11   5    7.2736   505.8    6.892      64.440
2015    2       20    11  10    7.2735   506.1    6.885      64.481
2015    2       20    11  16    7.2733   506.4    6.877      64.520
2015    2       20    11  21    7.2729   506.7    6.869      64.559
2015    2       20    11  26    7.2728   507.0    6.862      64.596
2015    2       20    11  31    7.2726   507.3    6.854      64.631
2015    2       20    11  36    7.2724   507.6    6.847      64.664
2015    2       20    11  42    7.2725   507.8    6.840      64.697
2015    2       20    11  47    7.2721   508.1    6.833      64.731
2015    2       20    11  52    7.2724   508.4    6.827      64.767
2015    2       20    11  57    7.2723   508.7    6.821      64.804
2015    2       20    12   2    7.2719   509.0    6.814      64.843
2015    2       20    12   8    7.2718   509.3    6.808      64.883
2015    2       20    12  13    7.2717   509.6    6.802      64.926
2015    2       20    12  18    7.2715   509.9    6.795      64.969
2015    2       20    12  23    7.2712   510.2    6.789      65.013
2015    2       20    12  28    7.2708   510.6    6.782      65.058
2015    2       20    12  34    7.2708   510.9    6.775      65.102
2015    2       20    12  39    7.2702   511.2    6.768      65.145
2015    2       20    12  44    7.2695   511.5    6.761      65.188
2015    2       20    12  49    7.2683   511.9    6.754      65.230
2015    2       20    12  54    7.2674   512.2    6.746      65.271
2015    2       20    13   0    7.2664   512.5    6.738      65.309
2015    2       20    13   5    7.2658   512.9    6.730      65.345
2015    2       20    13  10    7.2641   513.2    6.721      65.380
2015    2       20    13  15    7.2633   513.5    6.713      65.414
2015    2       20    13  20    7.2615   513.8    6.704      65.448
2015    2       20    13  26    7.2602   514.1    6.695      65.481
2015    2       20    13  31    7.2589   514.5    6.687      65.514
2015    2       20    13  36    7.2580   514.8    6.678      65.549
2015    2       20    13  41    7.2563   515.1    6.669      65.587
2015    2       20    13  46    7.2550   515.5    6.661      65.628
2015    2       20    13  52    7.2537   515.9    6.652      65.671
2015    2       20    13  57    7.2527   516.2    6.643      65.715
2015    2       20    14   2    7.2509   516.6    6.634      65.760
2015    2       20    14   7    7.2495   517.0    6.625      65.807
2015    2       20    14  12    7.2485   517.4    6.616      65.853
2015    2       20    14  18    7.2469   517.8    6.607      65.899
2015    2       20    14  23    7.2448   518.2    6.597      65.944
2015    2       20    14  28    7.2436   518.6    6.588      65.988
2015    2       20    14  33    7.2413   519.0    6.578      66.032
2015    2       20    14  38    7.2399   519.4    6.568      66.073
2015    2       20    14  44    7.2378   519.8    6.557      66.112
2015    2       20    14  49    7.2352   520.1    6.547      66.149
2015    2       20    14  54    7.2334   520.5    6.536      66.184
2015    2       20    14  59    7.2310   520.9    6.525      66.216
2015    2       20    15   4    7.2285   521.3    6.514      66.246
2015    2       20    15  10    7.2255   521.6    6.502      66.274
2015    2       20    15  15    7.2232   522.0    6.491      66.299
2015    2       20    15  20    7.2199   522.3    6.479      66.322
2015    2       20    15  25    7.2175   522.7    6.468      66.344
2015    2       20    15  30    7.2146   523.0    6.456      66.364
2015    2       20    15  36    7.2111   523.4    6.445      66.384
2015    2       20    15  41    7.2081   523.7    6.434      66.402
2015    2       20    15  46    7.2055   524.1    6.422      66.419
2015    2       20    15  51    7.2024   524.4    6.411      66.436
2015    2       20    15  56    7.1987   524.8    6.400      66.452
2015    2       20    16   2    7.1962   525.1    6.389      66.469
2015    2       20    16   7    7.1931   525.4    6.379      66.487
2015    2       20    16  12    7.1895   525.8    6.369      66.505
2015    2       20    16  17    7.1865   526.1    6.359      66.523
2015    2       20    16  22    7.1835   526.4    6.350      66.543
2015    2       20    16  28    7.1804   526.8    6.340      66.567
2015    2       20    16  33    7.1780   527.1    6.332      66.594
2015    2       20    16  38    7.1743   527.5    6.323      66.622
2015    2       20    16  43    7.1712   527.8    6.314      66.653
2015    2       20    16  48    7.1685   528.2    6.305      66.686
2015    2       20    16  54    7.1653   528.5    6.297      66.721
2015    2       20    16  59    7.1619   528.9    6.288      66.755
2015    2       20    17   4    7.1579   529.3    6.279      66.791
2015    2       20    17   9    7.1544   529.7    6.270      66.825
2015    2       20    17  14    7.1507   530.0    6.261      66.859
2015    2       20    17  20    7.1475   530.4    6.251      66.894
2015    2       20    17  25    7.1435   530.8    6.241      66.927
2015    2       20    17  30    7.1388   531.2    6.231      66.959
2015    2       20    17  35    7.1346   531.6    6.220      66.987
2015    2       20    17  40    7.1308   532.0    6.209      67.013
2015    2       20    17  46    7.1258   532.4    6.197      67.035
2015    2       20    17  51    7.1212   532.8    6.185      67.055
2015    2       20    17  56    7.1165   533.2    6.173      67.072
2015    2       20    18   1    7.1117   533.6    6.160      67.086
2015    2       20    18   6    7.1069   534.0    6.147      67.098
2015    2       20    18  12    7.1025   534.4    6.134      67.107
2015    2       20    18  17    7.0976   534.8    6.121      67.114
2015    2       20    18  22    7.0919   535.2    6.107      67.119
2015    2       20    18  27    7.0867   535.6    6.094      67.122
2015    2       20    18  32    7.0815   536.0    6.080      67.123
2015    2       20    18  38    7.0762   536.3    6.065      67.121
2015    2       20    18  43    7.0707   536.7    6.051      67.119
2015    2       20    18  48    7.0651   537.1    6.036      67.112
2015    2       20    18  53    7.0594   537.5    6.021      67.102
2015    2       20    18  58    7.0535   537.9    6.006      67.090
2015    2       20    19   4    7.0480   538.3    5.990      67.075
2015    2       20    19   9    7.0411   538.6    5.974      67.055
2015    2       20    19  14    7.0352   539.0    5.957      67.029
2015    2       20    19  19    7.0285   539.4    5.940      66.999
2015    2       20    19  24    7.0210   539.7    5.923      66.965
2015    2       20    19  30    7.0140   540.1    5.905      66.927
2015    2       20    19  35    7.0076   540.4    5.888      66.885
2015    2       20    19  40    6.9999   540.8    5.870      66.840
2015    2       20    19  45    6.9927   541.1    5.853      66.791
2015    2       20    19  50    6.9856   541.4    5.836      66.740
2015    2       20    19  56    6.9785   541.7    5.819      66.688
2015    2       20    20   1    6.9722   542.0    5.803      66.636
2015    2       20    20   6    6.9652   542.2    5.787      66.582
2015    2       20    20  11    6.9579   542.5    5.772      66.528
2015    2       20    20  16    6.9513   542.7    5.757      66.478
2015    2       20    20  22    6.9449   543.0    5.743      66.431
2015    2       20    20  27    6.9392   543.2    5.730      66.388
2015    2       20    20  32    6.9332   543.4    5.717      66.348
2015    2       20    20  37    6.9267   543.7    5.705      66.313
2015    2       20    20  42    6.9209   543.9    5.694      66.285
2015    2       20    20  48    6.9159   544.2    5.683      66.262
2015    2       20    20  53    6.9104   544.4    5.672      66.245
2015    2       20    20  58    6.9050   544.7    5.662      66.233
2015    2       20    21   3    6.8991   545.0    5.652      66.224
2015    2       20    21   8    6.8943   545.3    5.642      66.220
2015    2       20    21  14    6.8889   545.6    5.632      66.217
2015    2       20    21  19    6.8835   545.9    5.623      66.217
2015    2       20    21  24    6.8776   546.2    5.613      66.217
2015    2       20    21  29    6.8722   546.5    5.603      66.217
2015    2       20    21  34    6.8667   546.8    5.594      66.216
2015    2       20    21  40    6.8612   547.1    5.584      66.216
2015    2       20    21  45    6.8560   547.4    5.574      66.214
2015    2       20    21  50    6.8498   547.7    5.563      66.209
2015    2       20    21  55    6.8439   548.0    5.553      66.202
2015    2       20    22   0    6.8384   548.3    5.542      66.193
2015    2       20    22   6    6.8324   548.6    5.531      66.182
2015    2       20    22  11    6.8262   548.9    5.520      66.169
2015    2       20    22  16    6.8199   549.2    5.509      66.155
2015    2       20    22  21    6.8131   549.5    5.498      66.138
2015    2       20    22  26    6.8066   549.8    5.486      66.119
2015    2       20    22  32    6.8000   550.1    5.474      66.098
2015    2       20    22  37    6.7932   550.3    5.462      66.075
2015    2       20    22  42    6.7864   550.6    5.450      66.049
2015    2       20    22  47    6.7795   550.9    5.438      66.021
2015    2       20    22  52    6.7725   551.2    5.426      65.990
2015    2       20    22  58    6.7654   551.4    5.414      65.958
2015    2       20    23   3    6.7583   551.7    5.401      65.924
2015    2       20    23   8    6.7515   552.0    5.389      65.888
2015    2       20    23  13    6.7438   552.2    5.377      65.850
2015    2       20    23  18    6.7366   552.5    5.365      65.812
2015    2       20    23  24    6.7293   552.7    5.353      65.774
2015    2       20    23  29    6.7221   553.0    5.341      65.735
2015    2       20    23  34    6.7152   553.2    5.329      65.695
2015    2       20    23  39    6.7075   553.5    5.317      65.655
2015    2       20    23  44    6.7002   553.7    5.306      65.614
2015    2       20    23  50    6.6929   553.9    5.294      65.572
2015    2       20    23  55    6.6855   554.1    5.283      65.531
2015    2       21     0   0    6.6786   554.4    5.271      65.489
2015    2       21     0   5    6.6708   554.6    5.260      65.446
2015    2       21     0  10    6.6635   554.8    5.249      65.404
2015    2       21     0  16    6.6565   555.0    5.237      65.360
2015    2       21     0  21    6.6492   555.3    5.226      65.316
2015    2       21     0  26    6.6418   555.5    5.215      65.271
2015    2       21     0  31    6.6340   555.7    5.204      65.225
2015    2       21     0  36    6.6266   556.0    5.193      65.178
2015    2       21     0  42    6.6192   556.2    5.183      65.131
2015    2       21     0  47    6.6117   556.4    5.172      65.084
2015    2       21     0  52    6.6043   556.6    5.161      65.035
2015    2       21     0  57    6.5968   556.9    5.150      64.986
2015    2       21     1   2    6.5894   557.1    5.139      64.936
2015    2       21     1   8    6.5819   557.3    5.129      64.886
2015    2       21     1  13    6.5745   557.5    5.118      64.835
