year    month   day   hour  minute  B_enl V_enl   n_enl       T_enl
[year] [month] [day] [hour][minute] [nT]  [km/s]  [cm-3]      [kK]
2015    2       14     0   3    5.4087   390.0    7.130      38.430
2015    2       14     0   8    5.4141   389.9    7.140      38.437
2015    2       14     0  13    5.4195   389.9    7.150      38.444
2015    2       14     0  18    5.4250   389.9    7.159      38.451
2015    2       14     0  23    5.4304   389.9    7.169      38.459
2015    2       14     0  29    5.4359   389.9    7.179      38.466
2015    2       14     0  34    5.4413   389.8    7.189      38.474
2015    2       14     0  39    5.4467   389.8    7.199      38.481
2015    2       14     0  44    5.4522   389.8    7.209      38.489
2015    2       14     0  49    5.4576   389.8    7.219      38.498
2015    2       14     0  54    5.4630   389.8    7.229      38.506
2015    2       14     1   0    5.4684   389.7    7.239      38.514
2015    2       14     1   5    5.4739   389.7    7.249      38.523
2015    2       14     1  10    5.4793   389.7    7.259      38.533
2015    2       14     1  15    5.4847   389.7    7.269      38.542
2015    2       14     1  20    5.4901   389.7    7.279      38.552
2015    2       14     1  25    5.4955   389.7    7.289      38.561
2015    2       14     1  31    5.5009   389.6    7.299      38.571
2015    2       14     1  36    5.5063   389.6    7.309      38.581
2015    2       14     1  41    5.5117   389.6    7.319      38.591
2015    2       14     1  46    5.5170   389.6    7.329      38.601
2015    2       14     1  51    5.5224   389.6    7.339      38.611
2015    2       14     1  56    5.5278   389.6    7.348      38.622
2015    2       14     2   2    5.5331   389.6    7.358      38.632
2015    2       14     2   7    5.5384   389.5    7.368      38.642
2015    2       14     2  12    5.5438   389.5    7.377      38.653
2015    2       14     2  17    5.5491   389.5    7.387      38.663
2015    2       14     2  22    5.5545   389.5    7.396      38.673
2015    2       14     2  27    5.5598   389.5    7.406      38.683
2015    2       14     2  33    5.5651   389.5    7.415      38.693
2015    2       14     2  38    5.5705   389.5    7.424      38.702
2015    2       14     2  43    5.5758   389.4    7.434      38.712
2015    2       14     2  48    5.5812   389.4    7.443      38.721
2015    2       14     2  53    5.5865   389.4    7.452      38.731
2015    2       14     2  58    5.5918   389.4    7.461      38.740
2015    2       14     3   3    5.5972   389.4    7.470      38.749
2015    2       14     3   9    5.6025   389.4    7.479      38.758
2015    2       14     3  14    5.6079   389.4    7.488      38.767
2015    2       14     3  19    5.6132   389.4    7.497      38.776
2015    2       14     3  24    5.6186   389.4    7.506      38.784
2015    2       14     3  29    5.6240   389.3    7.515      38.793
2015    2       14     3  34    5.6293   389.3    7.524      38.801
2015    2       14     3  40    5.6347   389.3    7.532      38.809
2015    2       14     3  45    5.6401   389.3    7.541      38.817
2015    2       14     3  50    5.6455   389.3    7.550      38.825
2015    2       14     3  55    5.6509   389.3    7.558      38.833
2015    2       14     4   0    5.6564   389.3    7.567      38.841
2015    2       14     4   5    5.6618   389.3    7.576      38.849
2015    2       14     4  11    5.6672   389.3    7.584      38.856
2015    2       14     4  16    5.6727   389.3    7.593      38.864
2015    2       14     4  21    5.6782   389.3    7.601      38.871
2015    2       14     4  26    5.6837   389.3    7.609      38.878
2015    2       14     4  31    5.6891   389.2    7.618      38.886
2015    2       14     4  36    5.6947   389.2    7.626      38.893
2015    2       14     4  42    5.7002   389.2    7.634      38.900
2015    2       14     4  47    5.7057   389.2    7.643      38.907
2015    2       14     4  52    5.7113   389.2    7.651      38.914
2015    2       14     4  57    5.7169   389.2    7.659      38.921
2015    2       14     5   2    5.7225   389.2    7.667      38.928
2015    2       14     5   7    5.7281   389.2    7.676      38.934
2015    2       14     5  13    5.7337   389.2    7.684      38.941
2015    2       14     5  18    5.7394   389.2    7.692      38.948
2015    2       14     5  23    5.7450   389.2    7.700      38.955
2015    2       14     5  28    5.7507   389.2    7.708      38.962
2015    2       14     5  33    5.7564   389.2    7.717      38.969
2015    2       14     5  38    5.7622   389.2    7.725      38.976
2015    2       14     5  44    5.7679   389.2    7.733      38.983
2015    2       14     5  49    5.7737   389.2    7.741      38.991
2015    2       14     5  54    5.7795   389.2    7.749      38.998
2015    2       14     5  59    5.7853   389.2    7.758      39.006
2015    2       14     6   4    5.7911   389.1    7.766      39.013
2015    2       14     6   9    5.7969   389.1    7.774      39.021
2015    2       14     6  15    5.8028   389.1    7.782      39.029
2015    2       14     6  20    5.8087   389.1    7.791      39.037
2015    2       14     6  25    5.8146   389.1    7.799      39.045
2015    2       14     6  30    5.8206   389.1    7.808      39.053
2015    2       14     6  35    5.8266   389.1    7.816      39.062
2015    2       14     6  40    5.8326   389.1    7.825      39.071
2015    2       14     6  46    5.8385   389.1    7.833      39.079
2015    2       14     6  51    5.8445   389.1    7.842      39.088
2015    2       14     6  56    5.8505   389.1    7.851      39.097
2015    2       14     7   1    5.8566   389.1    7.859      39.107
2015    2       14     7   6    5.8626   389.1    7.868      39.116
2015    2       14     7  11    5.8687   389.2    7.877      39.126
2015    2       14     7  17    5.8747   389.2    7.886      39.137
2015    2       14     7  22    5.8808   389.2    7.895      39.147
2015    2       14     7  27    5.8869   389.2    7.904      39.158
2015    2       14     7  32    5.8930   389.2    7.913      39.170
2015    2       14     7  37    5.8991   389.2    7.922      39.181
2015    2       14     7  42    5.9053   389.2    7.931      39.193
2015    2       14     7  48    5.9113   389.2    7.941      39.206
2015    2       14     7  53    5.9175   389.2    7.950      39.218
2015    2       14     7  58    5.9236   389.2    7.959      39.231
2015    2       14     8   3    5.9297   389.2    7.968      39.244
2015    2       14     8   8    5.9358   389.3    7.977      39.257
2015    2       14     8  14    5.9420   389.3    7.987      39.271
2015    2       14     8  19    5.9481   389.3    7.996      39.285
2015    2       14     8  24    5.9541   389.3    8.005      39.300
2015    2       14     8  29    5.9603   389.3    8.014      39.315
2015    2       14     8  34    5.9663   389.3    8.023      39.330
2015    2       14     8  39    5.9723   389.4    8.032      39.346
2015    2       14     8  45    5.9784   389.4    8.041      39.361
2015    2       14     8  50    5.9844   389.4    8.049      39.377
2015    2       14     8  55    5.9905   389.4    8.058      39.393
2015    2       14     9   0    5.9965   389.4    8.067      39.409
2015    2       14     9   5    6.0026   389.4    8.075      39.425
2015    2       14     9  10    6.0086   389.5    8.084      39.441
2015    2       14     9  16    6.0146   389.5    8.092      39.456
2015    2       14     9  21    6.0207   389.5    8.101      39.472
2015    2       14     9  26    6.0266   389.5    8.109      39.488
2015    2       14     9  31    6.0326   389.5    8.117      39.504
2015    2       14     9  36    6.0387   389.6    8.126      39.520
2015    2       14     9  41    6.0447   389.6    8.134      39.535
2015    2       14     9  47    6.0507   389.6    8.142      39.550
2015    2       14     9  52    6.0567   389.6    8.150      39.566
2015    2       14     9  57    6.0627   389.6    8.158      39.581
2015    2       14    10   2    6.0688   389.7    8.166      39.596
2015    2       14    10   7    6.0749   389.7    8.174      39.611
2015    2       14    10  12    6.0809   389.7    8.182      39.626
2015    2       14    10  18    6.0869   389.7    8.190      39.641
2015    2       14    10  23    6.0930   389.7    8.198      39.656
2015    2       14    10  28    6.0991   389.8    8.206      39.671
2015    2       14    10  33    6.1053   389.8    8.213      39.686
2015    2       14    10  38    6.1114   389.8    8.221      39.701
2015    2       14    10  43    6.1176   389.8    8.229      39.716
2015    2       14    10  48    6.1238   389.9    8.237      39.731
2015    2       14    10  54    6.1300   389.9    8.245      39.746
2015    2       14    10  59    6.1362   389.9    8.252      39.762
2015    2       14    11   4    6.1425   389.9    8.260      39.777
2015    2       14    11   9    6.1488   389.9    8.268      39.792
2015    2       14    11  14    6.1551   390.0    8.275      39.808
2015    2       14    11  19    6.1614   390.0    8.283      39.823
2015    2       14    11  25    6.1677   390.0    8.291      39.839
2015    2       14    11  30    6.1741   390.0    8.299      39.855
2015    2       14    11  35    6.1806   390.1    8.306      39.871
2015    2       14    11  40    6.1870   390.1    8.314      39.887
2015    2       14    11  45    6.1934   390.1    8.322      39.903
2015    2       14    11  50    6.2000   390.2    8.330      39.919
2015    2       14    11  56    6.2066   390.2    8.337      39.936
2015    2       14    12   1    6.2131   390.2    8.345      39.953
2015    2       14    12   6    6.2198   390.2    8.353      39.969
2015    2       14    12  11    6.2263   390.3    8.361      39.986
2015    2       14    12  16    6.2331   390.3    8.368      40.003
2015    2       14    12  21    6.2398   390.3    8.376      40.021
2015    2       14    12  27    6.2465   390.4    8.384      40.038
2015    2       14    12  32    6.2534   390.4    8.392      40.056
2015    2       14    12  37    6.2602   390.4    8.400      40.074
2015    2       14    12  42    6.2672   390.4    8.408      40.092
2015    2       14    12  47    6.2741   390.5    8.416      40.110
2015    2       14    12  52    6.2811   390.5    8.424      40.128
2015    2       14    12  58    6.2881   390.5    8.432      40.147
2015    2       14    13   3    6.2952   390.6    8.441      40.165
2015    2       14    13   8    6.3023   390.6    8.449      40.184
2015    2       14    13  13    6.3095   390.6    8.457      40.203
2015    2       14    13  18    6.3167   390.7    8.466      40.223
2015    2       14    13  23    6.3240   390.7    8.475      40.242
2015    2       14    13  29    6.3314   390.7    8.483      40.262
2015    2       14    13  34    6.3387   390.8    8.492      40.282
2015    2       14    13  39    6.3461   390.8    8.501      40.303
2015    2       14    13  44    6.3535   390.9    8.511      40.323
2015    2       14    13  49    6.3610   390.9    8.520      40.345
2015    2       14    13  54    6.3686   390.9    8.530      40.366
2015    2       14    14   0    6.3763   391.0    8.539      40.388
2015    2       14    14   5    6.3837   391.0    8.549      40.410
2015    2       14    14  10    6.3914   391.0    8.559      40.432
2015    2       14    14  15    6.3990   391.1    8.570      40.455
2015    2       14    14  20    6.4067   391.1    8.580      40.478
2015    2       14    14  25    6.4144   391.2    8.591      40.503
2015    2       14    14  31    6.4222   391.2    8.602      40.528
2015    2       14    14  36    6.4299   391.3    8.612      40.555
2015    2       14    14  41    6.4376   391.3    8.623      40.582
2015    2       14    14  46    6.4454   391.4    8.634      40.611
2015    2       14    14  51    6.4531   391.5    8.645      40.640
2015    2       14    14  56    6.4609   391.5    8.656      40.670
2015    2       14    15   2    6.4688   391.6    8.667      40.701
2015    2       14    15   7    6.4764   391.6    8.678      40.733
2015    2       14    15  12    6.4841   391.7    8.689      40.765
2015    2       14    15  17    6.4918   391.8    8.700      40.798
2015    2       14    15  22    6.4995   391.8    8.711      40.832
2015    2       14    15  27    6.5072   391.9    8.721      40.867
2015    2       14    15  33    6.5150   392.0    8.731      40.902
2015    2       14    15  38    6.5225   392.1    8.741      40.939
2015    2       14    15  43    6.5300   392.1    8.751      40.975
2015    2       14    15  48    6.5376   392.2    8.761      41.012
2015    2       14    15  53    6.5453   392.3    8.770      41.049
2015    2       14    15  58    6.5527   392.4    8.779      41.086
2015    2       14    16   4    6.5601   392.5    8.788      41.123
2015    2       14    16   9    6.5678   392.5    8.797      41.161
2015    2       14    16  14    6.5752   392.6    8.806      41.198
2015    2       14    16  19    6.5824   392.7    8.814      41.235
2015    2       14    16  24    6.5898   392.8    8.822      41.272
2015    2       14    16  29    6.5974   392.8    8.830      41.310
2015    2       14    16  35    6.6047   392.9    8.837      41.347
2015    2       14    16  40    6.6119   393.0    8.845      41.384
2015    2       14    16  45    6.6192   393.1    8.852      41.421
2015    2       14    16  50    6.6265   393.1    8.859      41.458
2015    2       14    16  55    6.6338   393.2    8.866      41.495
2015    2       14    17   0    6.6412   393.3    8.873      41.531
2015    2       14    17   6    6.6486   393.4    8.880      41.567
2015    2       14    17  11    6.6558   393.5    8.886      41.603
2015    2       14    17  16    6.6633   393.5    8.893      41.639
2015    2       14    17  21    6.6706   393.6    8.899      41.675
2015    2       14    17  26    6.6777   393.7    8.905      41.711
2015    2       14    17  31    6.6852   393.8    8.911      41.747
2015    2       14    17  36    6.6926   393.8    8.917      41.782
2015    2       14    17  42    6.6999   393.9    8.923      41.817
2015    2       14    17  47    6.7071   394.0    8.929      41.852
2015    2       14    17  52    6.7145   394.1    8.935      41.887
2015    2       14    17  57    6.7219   394.1    8.940      41.922
2015    2       14    18   2    6.7295   394.2    8.946      41.957
2015    2       14    18   7    6.7368   394.3    8.951      41.992
2015    2       14    18  13    6.7442   394.4    8.957      42.026
2015    2       14    18  18    6.7517   394.4    8.962      42.060
2015    2       14    18  23    6.7592   394.5    8.967      42.095
2015    2       14    18  28    6.7667   394.6    8.973      42.129
2015    2       14    18  33    6.7742   394.7    8.978      42.163
2015    2       14    18  38    6.7818   394.8    8.983      42.197
2015    2       14    18  44    6.7894   394.8    8.988      42.232
2015    2       14    18  49    6.7971   394.9    8.994      42.266
2015    2       14    18  54    6.8048   395.0    8.999      42.300
2015    2       14    18  59    6.8125   395.1    9.004      42.334
2015    2       14    19   4    6.8203   395.1    9.009      42.369
2015    2       14    19   9    6.8281   395.2    9.015      42.403
2015    2       14    19  15    6.8359   395.3    9.020      42.438
2015    2       14    19  20    6.8437   395.4    9.025      42.473
2015    2       14    19  25    6.8517   395.5    9.031      42.508
2015    2       14    19  30    6.8597   395.5    9.036      42.543
2015    2       14    19  35    6.8676   395.6    9.041      42.579
2015    2       14    19  40    6.8758   395.7    9.047      42.615
2015    2       14    19  46    6.8838   395.8    9.053      42.651
2015    2       14    19  51    6.8920   395.9    9.058      42.688
2015    2       14    19  56    6.9003   395.9    9.064      42.725
2015    2       14    20   1    6.9087   396.0    9.070      42.762
2015    2       14    20   6    6.9171   396.1    9.076      42.800
2015    2       14    20  11    6.9255   396.2    9.082      42.839
2015    2       14    20  17    6.9341   396.3    9.089      42.878
2015    2       14    20  22    6.9427   396.4    9.095      42.918
2015    2       14    20  27    6.9514   396.5    9.102      42.958
2015    2       14    20  32    6.9600   396.6    9.109      42.999
2015    2       14    20  37    6.9688   396.7    9.116      43.040
2015    2       14    20  42    6.9777   396.7    9.123      43.082
2015    2       14    20  48    6.9867   396.8    9.130      43.125
2015    2       14    20  53    6.9955   396.9    9.138      43.169
2015    2       14    20  58    7.0046   397.0    9.146      43.212
2015    2       14    21   3    7.0136   397.1    9.155      43.257
2015    2       14    21   8    7.0226   397.2    9.163      43.303
2015    2       14    21  13    7.0316   397.4    9.172      43.349
2015    2       14    21  19    7.0407   397.5    9.181      43.396
2015    2       14    21  24    7.0498   397.6    9.190      43.444
2015    2       14    21  29    7.0588   397.7    9.200      43.493
2015    2       14    21  34    7.0678   397.8    9.210      43.543
2015    2       14    21  39    7.0767   397.9    9.220      43.595
2015    2       14    21  44    7.0857   398.1    9.230      43.648
2015    2       14    21  50    7.0945   398.2    9.240      43.702
2015    2       14    21  55    7.1034   398.3    9.250      43.757
2015    2       14    22   0    7.1122   398.4    9.260      43.814
2015    2       14    22   5    7.1209   398.6    9.270      43.873
2015    2       14    22  10    7.1296   398.7    9.279      43.932
2015    2       14    22  15    7.1383   398.9    9.289      43.993
2015    2       14    22  20    7.1468   399.0    9.299      44.055
2015    2       14    22  26    7.1554   399.1    9.308      44.118
2015    2       14    22  31    7.1638   399.3    9.317      44.182
2015    2       14    22  36    7.1722   399.4    9.326      44.246
2015    2       14    22  41    7.1806   399.6    9.335      44.311
2015    2       14    22  46    7.1888   399.7    9.344      44.376
2015    2       14    22  51    7.1971   399.9    9.352      44.442
2015    2       14    22  57    7.2053   400.0    9.360      44.508
2015    2       14    23   2    7.2135   400.2    9.368      44.575
2015    2       14    23   7    7.2215   400.3    9.375      44.642
2015    2       14    23  12    7.2297   400.4    9.383      44.709
2015    2       14    23  17    7.2377   400.6    9.390      44.776
2015    2       14    23  22    7.2457   400.7    9.397      44.843
2015    2       14    23  28    7.2537   400.9    9.403      44.911
2015    2       14    23  33    7.2617   401.0    9.410      44.979
2015    2       14    23  38    7.2696   401.2    9.416      45.047
2015    2       14    23  43    7.2776   401.3    9.422      45.115
2015    2       14    23  48    7.2855   401.5    9.428      45.183
2015    2       14    23  53    7.2935   401.6    9.434      45.252
2015    2       14    23  59    7.3014   401.8    9.440      45.321
2015    2       15     0   4    7.3092   401.9    9.445      45.390
2015    2       15     0   9    7.3171   402.1    9.450      45.460
2015    2       15     0  14    7.3251   402.2    9.455      45.529
2015    2       15     0  19    7.3330   402.4    9.460      45.599
2015    2       15     0  24    7.3409   402.5    9.464      45.669
2015    2       15     0  30    7.3487   402.7    9.468      45.739
2015    2       15     0  35    7.3566   402.8    9.472      45.810
2015    2       15     0  40    7.3645   403.0    9.476      45.880
2015    2       15     0  45    7.3725   403.1    9.480      45.951
2015    2       15     0  50    7.3804   403.3    9.483      46.022
2015    2       15     0  55    7.3883   403.4    9.487      46.092
2015    2       15     1   1    7.3962   403.6    9.490      46.163
2015    2       15     1   6    7.4041   403.7    9.493      46.234
