year    month   day   hour  minute  B_enl V_enl   n_enl       T_enl
[year] [month] [day] [hour][minute] [nT]  [km/s]  [cm-3]      [kK]
2015    2       18     0   4    4.7338   490.1    4.446      45.016
2015    2       18     0   9    4.7328   489.9    4.448      44.988
2015    2       18     0  14    4.7318   489.7    4.451      44.960
2015    2       18     0  19    4.7309   489.5    4.453      44.932
2015    2       18     0  25    4.7298   489.3    4.456      44.904
2015    2       18     0  30    4.7289   489.1    4.458      44.876
2015    2       18     0  35    4.7279   488.9    4.461      44.848
2015    2       18     0  40    4.7269   488.7    4.463      44.820
2015    2       18     0  46    4.7259   488.5    4.466      44.792
2015    2       18     0  51    4.7249   488.3    4.468      44.764
2015    2       18     0  56    4.7240   488.1    4.471      44.735
2015    2       18     1   1    4.7230   487.9    4.473      44.707
2015    2       18     1   7    4.7221   487.7    4.476      44.679
2015    2       18     1  12    4.7211   487.5    4.478      44.651
2015    2       18     1  17    4.7202   487.3    4.481      44.623
2015    2       18     1  22    4.7192   487.1    4.483      44.595
2015    2       18     1  28    4.7184   486.9    4.485      44.567
2015    2       18     1  33    4.7176   486.7    4.488      44.539
2015    2       18     1  38    4.7168   486.5    4.490      44.511
2015    2       18     1  43    4.7159   486.3    4.493      44.483
2015    2       18     1  49    4.7151   486.1    4.495      44.456
2015    2       18     1  54    4.7144   485.9    4.497      44.428
2015    2       18     1  59    4.7136   485.7    4.500      44.401
2015    2       18     2   4    4.7129   485.5    4.502      44.374
2015    2       18     2   9    4.7122   485.3    4.504      44.347
2015    2       18     2  15    4.7115   485.1    4.506      44.320
2015    2       18     2  20    4.7110   484.9    4.509      44.293
2015    2       18     2  25    4.7102   484.7    4.511      44.266
2015    2       18     2  30    4.7096   484.5    4.513      44.240
2015    2       18     2  36    4.7091   484.3    4.515      44.213
2015    2       18     2  41    4.7086   484.1    4.517      44.186
2015    2       18     2  46    4.7081   483.9    4.519      44.159
2015    2       18     2  51    4.7075   483.7    4.521      44.132
2015    2       18     2  57    4.7071   483.5    4.523      44.105
2015    2       18     3   2    4.7067   483.3    4.525      44.078
2015    2       18     3   7    4.7062   483.1    4.527      44.050
2015    2       18     3  12    4.7057   482.8    4.528      44.023
2015    2       18     3  18    4.7054   482.6    4.530      43.995
2015    2       18     3  23    4.7050   482.4    4.532      43.967
2015    2       18     3  28    4.7045   482.2    4.534      43.938
2015    2       18     3  33    4.7043   482.0    4.535      43.910
2015    2       18     3  39    4.7039   481.8    4.537      43.880
2015    2       18     3  44    4.7034   481.6    4.539      43.851
2015    2       18     3  49    4.7033   481.4    4.540      43.821
2015    2       18     3  54    4.7030   481.2    4.542      43.791
2015    2       18     4   0    4.7025   481.0    4.543      43.760
2015    2       18     4   5    4.7024   480.8    4.545      43.730
2015    2       18     4  10    4.7021   480.6    4.546      43.699
2015    2       18     4  15    4.7017   480.4    4.548      43.667
2015    2       18     4  21    4.7016   480.2    4.549      43.636
2015    2       18     4  26    4.7012   480.0    4.551      43.604
2015    2       18     4  31    4.7010   479.8    4.552      43.572
2015    2       18     4  36    4.7010   479.6    4.554      43.540
2015    2       18     4  42    4.7008   479.3    4.556      43.507
2015    2       18     4  47    4.7006   479.1    4.557      43.475
2015    2       18     4  52    4.7005   478.9    4.559      43.443
2015    2       18     4  57    4.7002   478.7    4.561      43.410
2015    2       18     5   3    4.7003   478.5    4.563      43.378
2015    2       18     5   8    4.7003   478.3    4.564      43.345
2015    2       18     5  13    4.7001   478.1    4.566      43.313
2015    2       18     5  18    4.7003   477.9    4.568      43.281
2015    2       18     5  24    4.7003   477.7    4.571      43.249
2015    2       18     5  29    4.7002   477.4    4.573      43.218
2015    2       18     5  34    4.7005   477.2    4.575      43.186
2015    2       18     5  39    4.7005   477.0    4.578      43.156
2015    2       18     5  45    4.7008   476.8    4.580      43.125
2015    2       18     5  50    4.7010   476.6    4.583      43.095
2015    2       18     5  55    4.7013   476.4    4.586      43.066
2015    2       18     6   0    4.7016   476.2    4.589      43.037
2015    2       18     6   6    4.7019   476.0    4.592      43.009
2015    2       18     6  11    4.7023   475.8    4.596      42.981
2015    2       18     6  16    4.7027   475.6    4.599      42.954
2015    2       18     6  21    4.7032   475.4    4.603      42.928
2015    2       18     6  27    4.7035   475.1    4.607      42.903
2015    2       18     6  32    4.7042   474.9    4.611      42.878
2015    2       18     6  37    4.7046   474.7    4.615      42.854
2015    2       18     6  42    4.7053   474.5    4.620      42.831
2015    2       18     6  48    4.7061   474.3    4.624      42.809
2015    2       18     6  53    4.7066   474.1    4.629      42.787
2015    2       18     6  58    4.7074   473.9    4.634      42.766
2015    2       18     7   3    4.7082   473.7    4.639      42.746
2015    2       18     7   9    4.7088   473.5    4.644      42.727
2015    2       18     7  14    4.7098   473.3    4.649      42.708
2015    2       18     7  19    4.7106   473.1    4.655      42.690
2015    2       18     7  24    4.7115   472.9    4.660      42.673
2015    2       18     7  30    4.7124   472.7    4.666      42.656
2015    2       18     7  35    4.7133   472.5    4.672      42.640
2015    2       18     7  40    4.7141   472.4    4.678      42.625
2015    2       18     7  45    4.7152   472.2    4.684      42.610
2015    2       18     7  51    4.7162   472.0    4.690      42.596
2015    2       18     7  56    4.7171   471.8    4.696      42.582
2015    2       18     8   1    4.7183   471.6    4.702      42.569
2015    2       18     8   6    4.7192   471.4    4.708      42.557
2015    2       18     8  11    4.7203   471.2    4.715      42.545
2015    2       18     8  17    4.7217   471.0    4.721      42.533
2015    2       18     8  22    4.7227   470.8    4.728      42.522
2015    2       18     8  27    4.7239   470.6    4.734      42.512
2015    2       18     8  32    4.7251   470.4    4.740      42.502
2015    2       18     8  38    4.7264   470.2    4.747      42.493
2015    2       18     8  43    4.7277   470.0    4.753      42.484
2015    2       18     8  48    4.7292   469.9    4.760      42.475
2015    2       18     8  53    4.7304   469.7    4.767      42.467
2015    2       18     8  59    4.7320   469.5    4.773      42.460
2015    2       18     9   4    4.7334   469.3    4.779      42.453
2015    2       18     9   9    4.7349   469.1    4.786      42.446
2015    2       18     9  14    4.7363   468.9    4.792      42.440
2015    2       18     9  20    4.7379   468.8    4.799      42.434
2015    2       18     9  25    4.7394   468.6    4.805      42.428
2015    2       18     9  30    4.7410   468.4    4.811      42.423
2015    2       18     9  35    4.7426   468.2    4.818      42.417
2015    2       18     9  41    4.7440   468.0    4.824      42.413
2015    2       18     9  46    4.7457   467.9    4.830      42.408
2015    2       18     9  51    4.7477   467.7    4.836      42.403
2015    2       18     9  56    4.7494   467.5    4.842      42.398
2015    2       18    10   2    4.7511   467.3    4.849      42.394
2015    2       18    10   7    4.7527   467.2    4.855      42.389
2015    2       18    10  12    4.7547   467.0    4.861      42.384
2015    2       18    10  17    4.7563   466.8    4.866      42.379
2015    2       18    10  23    4.7585   466.7    4.872      42.375
2015    2       18    10  28    4.7601   466.5    4.878      42.370
2015    2       18    10  33    4.7623   466.3    4.884      42.365
2015    2       18    10  38    4.7642   466.2    4.890      42.360
2015    2       18    10  44    4.7662   466.0    4.895      42.355
2015    2       18    10  49    4.7680   465.8    4.901      42.350
2015    2       18    10  54    4.7703   465.7    4.907      42.345
2015    2       18    10  59    4.7723   465.5    4.912      42.340
2015    2       18    11   5    4.7741   465.4    4.918      42.335
2015    2       18    11  10    4.7762   465.2    4.923      42.330
2015    2       18    11  15    4.7786   465.0    4.929      42.325
2015    2       18    11  20    4.7807   464.9    4.935      42.319
2015    2       18    11  26    4.7829   464.7    4.940      42.314
2015    2       18    11  31    4.7850   464.6    4.945      42.309
2015    2       18    11  36    4.7873   464.4    4.951      42.304
2015    2       18    11  41    4.7894   464.3    4.956      42.298
2015    2       18    11  47    4.7917   464.1    4.962      42.293
2015    2       18    11  52    4.7936   464.0    4.967      42.288
2015    2       18    11  57    4.7962   463.8    4.973      42.283
2015    2       18    12   2    4.7982   463.7    4.978      42.278
2015    2       18    12   8    4.8007   463.5    4.984      42.273
2015    2       18    12  13    4.8028   463.4    4.989      42.268
2015    2       18    12  18    4.8051   463.2    4.995      42.263
2015    2       18    12  23    4.8074   463.1    5.000      42.259
2015    2       18    12  29    4.8098   462.9    5.006      42.254
2015    2       18    12  34    4.8125   462.8    5.012      42.250
2015    2       18    12  39    4.8148   462.6    5.017      42.246
2015    2       18    12  44    4.8172   462.5    5.023      42.243
2015    2       18    12  50    4.8194   462.3    5.029      42.239
2015    2       18    12  55    4.8221   462.2    5.034      42.236
2015    2       18    13   0    4.8243   462.1    5.040      42.234
2015    2       18    13   5    4.8268   461.9    5.046      42.232
2015    2       18    13  11    4.8293   461.8    5.052      42.230
2015    2       18    13  16    4.8321   461.6    5.058      42.228
2015    2       18    13  21    4.8344   461.5    5.064      42.227
2015    2       18    13  26    4.8372   461.4    5.070      42.227
2015    2       18    13  32    4.8395   461.2    5.076      42.226
2015    2       18    13  37    4.8421   461.1    5.082      42.226
2015    2       18    13  42    4.8447   461.0    5.088      42.227
2015    2       18    13  47    4.8474   460.8    5.095      42.228
2015    2       18    13  53    4.8503   460.7    5.101      42.229
2015    2       18    13  58    4.8528   460.6    5.108      42.231
2015    2       18    14   3    4.8557   460.5    5.114      42.233
2015    2       18    14   8    4.8585   460.3    5.121      42.235
2015    2       18    14  13    4.8612   460.2    5.128      42.238
2015    2       18    14  19    4.8638   460.1    5.134      42.241
2015    2       18    14  24    4.8666   460.0    5.141      42.244
2015    2       18    14  29    4.8697   459.8    5.148      42.248
2015    2       18    14  34    4.8725   459.7    5.155      42.252
2015    2       18    14  40    4.8754   459.6    5.162      42.256
2015    2       18    14  45    4.8781   459.5    5.169      42.261
2015    2       18    14  50    4.8810   459.4    5.176      42.266
2015    2       18    14  55    4.8842   459.2    5.183      42.271
2015    2       18    15   1    4.8871   459.1    5.190      42.276
2015    2       18    15   6    4.8901   459.0    5.197      42.282
2015    2       18    15  11    4.8931   458.9    5.205      42.288
2015    2       18    15  16    4.8961   458.8    5.212      42.294
2015    2       18    15  22    4.8990   458.7    5.219      42.301
2015    2       18    15  27    4.9022   458.6    5.226      42.307
2015    2       18    15  32    4.9053   458.5    5.234      42.314
2015    2       18    15  37    4.9082   458.3    5.241      42.321
2015    2       18    15  43    4.9115   458.2    5.248      42.328
2015    2       18    15  48    4.9144   458.1    5.255      42.335
2015    2       18    15  53    4.9176   458.0    5.263      42.342
2015    2       18    15  58    4.9207   457.9    5.270      42.349
2015    2       18    16   4    4.9239   457.8    5.277      42.356
2015    2       18    16   9    4.9271   457.7    5.285      42.364
2015    2       18    16  14    4.9305   457.6    5.292      42.371
2015    2       18    16  19    4.9335   457.5    5.299      42.378
2015    2       18    16  25    4.9369   457.4    5.307      42.386
2015    2       18    16  30    4.9402   457.3    5.314      42.393
2015    2       18    16  35    4.9432   457.2    5.321      42.401
2015    2       18    16  40    4.9467   457.1    5.329      42.408
2015    2       18    16  46    4.9500   457.0    5.336      42.416
2015    2       18    16  51    4.9531   456.9    5.344      42.423
2015    2       18    16  56    4.9566   456.8    5.351      42.431
2015    2       18    17   1    4.9600   456.7    5.358      42.439
2015    2       18    17   7    4.9632   456.6    5.366      42.447
2015    2       18    17  12    4.9666   456.5    5.373      42.456
2015    2       18    17  17    4.9701   456.4    5.380      42.465
2015    2       18    17  22    4.9734   456.3    5.388      42.474
2015    2       18    17  28    4.9770   456.2    5.395      42.484
2015    2       18    17  33    4.9803   456.2    5.402      42.495
2015    2       18    17  38    4.9839   456.1    5.410      42.505
2015    2       18    17  43    4.9872   456.0    5.417      42.517
2015    2       18    17  49    4.9907   455.9    5.424      42.528
2015    2       18    17  54    4.9943   455.8    5.431      42.540
2015    2       18    17  59    4.9977   455.7    5.439      42.552
2015    2       18    18   4    5.0012   455.6    5.446      42.565
2015    2       18    18  10    5.0047   455.6    5.453      42.578
2015    2       18    18  15    5.0083   455.5    5.460      42.592
2015    2       18    18  20    5.0120   455.4    5.467      42.605
2015    2       18    18  25    5.0154   455.3    5.474      42.619
2015    2       18    18  31    5.0190   455.3    5.481      42.633
2015    2       18    18  36    5.0226   455.2    5.488      42.648
2015    2       18    18  41    5.0263   455.1    5.495      42.662
2015    2       18    18  46    5.0297   455.0    5.502      42.677
2015    2       18    18  52    5.0334   455.0    5.509      42.691
2015    2       18    18  57    5.0371   454.9    5.516      42.706
2015    2       18    19   2    5.0407   454.8    5.523      42.722
2015    2       18    19   7    5.0442   454.8    5.530      42.737
2015    2       18    19  13    5.0478   454.7    5.537      42.752
2015    2       18    19  18    5.0514   454.6    5.544      42.768
2015    2       18    19  23    5.0552   454.6    5.550      42.783
2015    2       18    19  28    5.0588   454.5    5.557      42.799
2015    2       18    19  34    5.0624   454.4    5.564      42.815
2015    2       18    19  39    5.0659   454.4    5.571      42.831
2015    2       18    19  44    5.0697   454.3    5.577      42.847
2015    2       18    19  49    5.0733   454.3    5.584      42.862
2015    2       18    19  55    5.0768   454.2    5.591      42.879
2015    2       18    20   0    5.0806   454.1    5.597      42.895
2015    2       18    20   5    5.0841   454.1    5.604      42.911
2015    2       18    20  10    5.0878   454.0    5.610      42.927
2015    2       18    20  15    5.0913   454.0    5.616      42.943
2015    2       18    20  21    5.0949   453.9    5.623      42.958
2015    2       18    20  26    5.0985   453.8    5.629      42.974
2015    2       18    20  31    5.1021   453.8    5.635      42.989
2015    2       18    20  36    5.1057   453.7    5.641      43.005
2015    2       18    20  42    5.1094   453.7    5.647      43.020
2015    2       18    20  47    5.1130   453.6    5.653      43.035
2015    2       18    20  52    5.1166   453.6    5.659      43.050
2015    2       18    20  57    5.1202   453.5    5.665      43.065
2015    2       18    21   3    5.1237   453.5    5.671      43.080
2015    2       18    21   8    5.1274   453.4    5.677      43.094
2015    2       18    21  13    5.1310   453.4    5.683      43.109
2015    2       18    21  18    5.1345   453.3    5.689      43.123
2015    2       18    21  24    5.1382   453.3    5.694      43.137
2015    2       18    21  29    5.1418   453.2    5.700      43.151
2015    2       18    21  34    5.1454   453.2    5.706      43.165
2015    2       18    21  39    5.1490   453.1    5.711      43.178
2015    2       18    21  45    5.1526   453.0    5.717      43.192
2015    2       18    21  50    5.1561   453.0    5.723      43.205
2015    2       18    21  55    5.1597   452.9    5.728      43.218
2015    2       18    22   0    5.1635   452.9    5.734      43.231
2015    2       18    22   6    5.1670   452.8    5.739      43.245
2015    2       18    22  11    5.1707   452.8    5.745      43.258
2015    2       18    22  16    5.1744   452.7    5.750      43.271
2015    2       18    22  21    5.1780   452.7    5.756      43.284
2015    2       18    22  27    5.1816   452.6    5.761      43.297
2015    2       18    22  32    5.1853   452.6    5.767      43.310
2015    2       18    22  37    5.1890   452.6    5.772      43.324
2015    2       18    22  42    5.1927   452.5    5.778      43.337
2015    2       18    22  48    5.1964   452.5    5.783      43.350
2015    2       18    22  53    5.2001   452.4    5.789      43.364
2015    2       18    22  58    5.2038   452.4    5.795      43.377
2015    2       18    23   3    5.2076   452.3    5.800      43.391
2015    2       18    23   9    5.2113   452.3    5.806      43.405
2015    2       18    23  14    5.2150   452.2    5.812      43.419
2015    2       18    23  19    5.2187   452.2    5.817      43.433
2015    2       18    23  24    5.2225   452.1    5.823      43.448
2015    2       18    23  30    5.2263   452.1    5.829      43.462
2015    2       18    23  35    5.2300   452.1    5.835      43.477
2015    2       18    23  40    5.2338   452.0    5.841      43.492
2015    2       18    23  45    5.2376   452.0    5.847      43.507
2015    2       18    23  51    5.2413   451.9    5.853      43.523
2015    2       18    23  56    5.2452   451.9    5.859      43.539
2015    2       19     0   1    5.2490   451.9    5.865      43.555
2015    2       19     0   6    5.2528   451.8    5.872      43.571
2015    2       19     0  12    5.2566   451.8    5.878      43.587
2015    2       19     0  17    5.2604   451.7    5.884      43.604
2015    2       19     0  22    5.2643   451.7    5.891      43.622
2015    2       19     0  27    5.2681   451.7    5.897      43.640
2015    2       19     0  33    5.2720   451.6    5.904      43.658
2015    2       19     0  38    5.2758   451.6    5.910      43.677
2015    2       19     0  43    5.2796   451.6    5.917      43.696
2015    2       19     0  48    5.2835   451.5    5.923      43.716
2015    2       19     0  54    5.2873   451.5    5.930      43.737
2015    2       19     0  59    5.2912   451.5    5.937      43.758
2015    2       19     1   4    5.2950   451.4    5.943      43.780
2015    2       19     1   9    5.2989   451.4    5.950      43.802
2015    2       19     1  15    5.3028   451.4    5.956      43.825
2015    2       19     1  20    5.3067   451.3    5.963      43.848
2015    2       19     1  25    5.3105   451.3    5.970      43.872
2015    2       19     1  30    5.3144   451.3    5.976      43.897
