year    month   day   hour  minute  B_enl V_enl   n_enl       T_enl
[year] [month] [day] [hour][minute] [nT]  [km/s]  [cm-3]      [kK]
2015    2       20     0   1    6.5985   471.8    6.937      53.476
2015    2       20     0   6    6.6016   471.9    6.938      53.521
2015    2       20     0  11    6.6047   472.0    6.938      53.565
2015    2       20     0  16    6.6078   472.1    6.939      53.607
2015    2       20     0  21    6.6108   472.3    6.939      53.648
2015    2       20     0  27    6.6138   472.4    6.939      53.688
2015    2       20     0  32    6.6167   472.5    6.939      53.727
2015    2       20     0  37    6.6197   472.7    6.938      53.765
2015    2       20     0  42    6.6226   472.8    6.938      53.802
2015    2       20     0  47    6.6254   472.9    6.937      53.837
2015    2       20     0  53    6.6283   473.1    6.936      53.872
2015    2       20     0  58    6.6311   473.2    6.935      53.906
2015    2       20     1   3    6.6338   473.3    6.934      53.939
2015    2       20     1   8    6.6366   473.5    6.933      53.971
2015    2       20     1  13    6.6394   473.6    6.932      54.003
2015    2       20     1  18    6.6421   473.7    6.930      54.034
2015    2       20     1  24    6.6448   473.9    6.929      54.064
2015    2       20     1  29    6.6475   474.0    6.928      54.094
2015    2       20     1  34    6.6502   474.1    6.926      54.123
2015    2       20     1  39    6.6529   474.3    6.925      54.152
2015    2       20     1  44    6.6556   474.4    6.923      54.180
2015    2       20     1  50    6.6583   474.5    6.921      54.208
2015    2       20     1  55    6.6609   474.7    6.920      54.236
2015    2       20     2   0    6.6635   474.8    6.918      54.263
2015    2       20     2   5    6.6662   474.9    6.917      54.290
2015    2       20     2  10    6.6688   475.1    6.915      54.318
2015    2       20     2  15    6.6715   475.2    6.914      54.345
2015    2       20     2  21    6.6741   475.3    6.912      54.372
2015    2       20     2  26    6.6768   475.5    6.911      54.399
2015    2       20     2  31    6.6793   475.6    6.909      54.426
2015    2       20     2  36    6.6820   475.8    6.908      54.454
2015    2       20     2  41    6.6845   475.9    6.907      54.481
2015    2       20     2  47    6.6871   476.0    6.906      54.509
2015    2       20     2  52    6.6898   476.2    6.904      54.537
2015    2       20     2  57    6.6923   476.3    6.903      54.566
2015    2       20     3   2    6.6949   476.4    6.902      54.594
2015    2       20     3   7    6.6974   476.6    6.901      54.623
2015    2       20     3  13    6.6998   476.7    6.901      54.652
2015    2       20     3  18    6.7023   476.9    6.900      54.682
2015    2       20     3  23    6.7047   477.0    6.899      54.712
2015    2       20     3  28    6.7073   477.1    6.899      54.742
2015    2       20     3  33    6.7098   477.3    6.898      54.773
2015    2       20     3  38    6.7122   477.4    6.898      54.804
2015    2       20     3  44    6.7144   477.5    6.898      54.835
2015    2       20     3  49    6.7168   477.7    6.898      54.868
2015    2       20     3  54    6.7192   477.8    6.898      54.901
2015    2       20     3  59    6.7215   477.9    6.898      54.934
2015    2       20     4   4    6.7238   478.1    6.898      54.969
2015    2       20     4  10    6.7262   478.2    6.899      55.004
2015    2       20     4  15    6.7287   478.3    6.900      55.040
2015    2       20     4  20    6.7310   478.5    6.900      55.076
2015    2       20     4  25    6.7332   478.6    6.901      55.114
2015    2       20     4  30    6.7355   478.7    6.903      55.153
2015    2       20     4  35    6.7380   478.9    6.904      55.193
2015    2       20     4  41    6.7404   479.0    6.905      55.234
2015    2       20     4  46    6.7427   479.1    6.907      55.276
2015    2       20     4  51    6.7449   479.3    6.909      55.319
2015    2       20     4  56    6.7475   479.4    6.910      55.363
2015    2       20     5   1    6.7497   479.5    6.912      55.408
2015    2       20     5   7    6.7521   479.7    6.914      55.454
2015    2       20     5  12    6.7547   479.8    6.917      55.500
2015    2       20     5  17    6.7572   480.0    6.919      55.547
2015    2       20     5  22    6.7595   480.1    6.921      55.596
2015    2       20     5  27    6.7622   480.2    6.924      55.644
2015    2       20     5  32    6.7647   480.4    6.927      55.694
2015    2       20     5  38    6.7672   480.5    6.930      55.744
2015    2       20     5  43    6.7696   480.6    6.933      55.795
2015    2       20     5  48    6.7725   480.8    6.936      55.848
2015    2       20     5  53    6.7749   480.9    6.939      55.902
2015    2       20     5  58    6.7776   481.1    6.942      55.957
2015    2       20     6   4    6.7805   481.2    6.946      56.014
2015    2       20     6   9    6.7832   481.4    6.949      56.072
2015    2       20     6  14    6.7858   481.5    6.953      56.131
2015    2       20     6  19    6.7886   481.7    6.956      56.191
2015    2       20     6  24    6.7914   481.8    6.960      56.252
2015    2       20     6  30    6.7943   482.0    6.964      56.314
2015    2       20     6  35    6.7971   482.1    6.968      56.376
2015    2       20     6  40    6.8000   482.3    6.971      56.439
2015    2       20     6  45    6.8029   482.4    6.975      56.504
2015    2       20     6  50    6.8058   482.6    6.979      56.570
2015    2       20     6  55    6.8086   482.8    6.982      56.637
2015    2       20     7   1    6.8115   482.9    6.986      56.703
2015    2       20     7   6    6.8142   483.1    6.989      56.769
2015    2       20     7  11    6.8170   483.3    6.992      56.834
2015    2       20     7  16    6.8197   483.5    6.995      56.899
2015    2       20     7  21    6.8224   483.6    6.997      56.963
2015    2       20     7  27    6.8251   483.8    6.999      57.025
2015    2       20     7  32    6.8278   484.0    7.001      57.087
2015    2       20     7  37    6.8303   484.2    7.003      57.147
2015    2       20     7  42    6.8328   484.4    7.004      57.206
2015    2       20     7  47    6.8353   484.6    7.005      57.264
2015    2       20     7  52    6.8377   484.7    7.005      57.320
2015    2       20     7  58    6.8400   484.9    7.005      57.374
2015    2       20     8   3    6.8422   485.1    7.005      57.427
2015    2       20     8   8    6.8445   485.3    7.005      57.477
2015    2       20     8  13    6.8466   485.5    7.004      57.526
2015    2       20     8  18    6.8487   485.7    7.002      57.573
2015    2       20     8  24    6.8508   485.9    7.001      57.619
2015    2       20     8  29    6.8528   486.1    6.999      57.663
2015    2       20     8  34    6.8548   486.3    6.997      57.705
2015    2       20     8  39    6.8567   486.5    6.994      57.745
2015    2       20     8  44    6.8585   486.8    6.992      57.785
2015    2       20     8  50    6.8604   487.0    6.989      57.822
2015    2       20     8  55    6.8622   487.2    6.985      57.859
2015    2       20     9   0    6.8639   487.4    6.982      57.894
2015    2       20     9   5    6.8656   487.6    6.978      57.928
2015    2       20     9  10    6.8673   487.8    6.975      57.960
2015    2       20     9  15    6.8690   488.0    6.971      57.992
2015    2       20     9  21    6.8706   488.2    6.967      58.022
2015    2       20     9  26    6.8722   488.4    6.962      58.052
2015    2       20     9  31    6.8737   488.6    6.958      58.080
2015    2       20     9  36    6.8752   488.8    6.954      58.108
2015    2       20     9  41    6.8767   489.1    6.949      58.135
2015    2       20     9  47    6.8781   489.3    6.944      58.160
2015    2       20     9  52    6.8795   489.5    6.939      58.185
2015    2       20     9  57    6.8809   489.7    6.935      58.210
2015    2       20    10   2    6.8822   489.9    6.930      58.233
2015    2       20    10   7    6.8835   490.1    6.925      58.257
2015    2       20    10  12    6.8848   490.3    6.920      58.279
2015    2       20    10  18    6.8860   490.5    6.915      58.301
2015    2       20    10  23    6.8872   490.7    6.910      58.322
2015    2       20    10  28    6.8884   490.9    6.904      58.343
2015    2       20    10  33    6.8895   491.1    6.899      58.364
2015    2       20    10  38    6.8906   491.4    6.894      58.384
2015    2       20    10  44    6.8917   491.6    6.889      58.404
2015    2       20    10  49    6.8928   491.8    6.884      58.423
2015    2       20    10  54    6.8938   492.0    6.879      58.443
2015    2       20    10  59    6.8949   492.2    6.874      58.462
2015    2       20    11   4    6.8959   492.4    6.869      58.480
2015    2       20    11   9    6.8969   492.5    6.865      58.499
2015    2       20    11  15    6.8978   492.7    6.860      58.518
2015    2       20    11  20    6.8988   492.9    6.855      58.537
2015    2       20    11  25    6.8998   493.1    6.851      58.557
2015    2       20    11  30    6.9009   493.3    6.847      58.576
2015    2       20    11  35    6.9018   493.5    6.843      58.596
2015    2       20    11  41    6.9028   493.7    6.839      58.616
2015    2       20    11  46    6.9038   493.9    6.835      58.638
2015    2       20    11  51    6.9049   494.1    6.831      58.661
2015    2       20    11  56    6.9060   494.2    6.828      58.684
2015    2       20    12   1    6.9070   494.4    6.825      58.709
2015    2       20    12   7    6.9082   494.6    6.822      58.736
2015    2       20    12  12    6.9093   494.8    6.819      58.763
2015    2       20    12  17    6.9106   495.0    6.817      58.793
2015    2       20    12  22    6.9117   495.2    6.815      58.823
2015    2       20    12  27    6.9129   495.4    6.812      58.855
2015    2       20    12  32    6.9142   495.6    6.811      58.889
2015    2       20    12  38    6.9156   495.7    6.809      58.923
2015    2       20    12  43    6.9169   495.9    6.807      58.959
2015    2       20    12  48    6.9183   496.1    6.806      58.997
2015    2       20    12  53    6.9196   496.3    6.805      59.036
2015    2       20    12  58    6.9211   496.5    6.804      59.076
2015    2       20    13   4    6.9225   496.7    6.803      59.117
2015    2       20    13   9    6.9240   496.9    6.802      59.159
2015    2       20    13  14    6.9256   497.1    6.802      59.204
2015    2       20    13  19    6.9270   497.3    6.801      59.250
2015    2       20    13  24    6.9287   497.5    6.801      59.298
2015    2       20    13  29    6.9301   497.7    6.801      59.348
2015    2       20    13  35    6.9316   497.9    6.801      59.399
2015    2       20    13  40    6.9332   498.1    6.801      59.450
2015    2       20    13  45    6.9348   498.3    6.802      59.503
2015    2       20    13  50    6.9363   498.5    6.802      59.556
2015    2       20    13  55    6.9378   498.7    6.803      59.611
2015    2       20    14   1    6.9393   498.9    6.803      59.667
2015    2       20    14   6    6.9408   499.1    6.803      59.723
2015    2       20    14  11    6.9424   499.3    6.803      59.780
2015    2       20    14  16    6.9438   499.5    6.803      59.838
2015    2       20    14  21    6.9451   499.7    6.803      59.894
2015    2       20    14  27    6.9461   499.9    6.803      59.950
2015    2       20    14  32    6.9473   500.2    6.802      60.005
2015    2       20    14  37    6.9485   500.4    6.801      60.059
2015    2       20    14  42    6.9497   500.6    6.800      60.112
2015    2       20    14  47    6.9505   500.8    6.799      60.163
2015    2       20    14  52    6.9514   501.0    6.797      60.214
2015    2       20    14  58    6.9523   501.3    6.795      60.263
2015    2       20    15   3    6.9530   501.5    6.793      60.311
2015    2       20    15   8    6.9537   501.7    6.790      60.357
2015    2       20    15  13    6.9543   501.9    6.787      60.401
2015    2       20    15  18    6.9548   502.2    6.784      60.444
2015    2       20    15  24    6.9555   502.4    6.780      60.485
2015    2       20    15  29    6.9559   502.6    6.776      60.525
2015    2       20    15  34    6.9562   502.9    6.772      60.563
2015    2       20    15  39    6.9565   503.1    6.767      60.599
2015    2       20    15  44    6.9567   503.4    6.762      60.634
2015    2       20    15  49    6.9568   503.6    6.757      60.668
2015    2       20    15  55    6.9566   503.8    6.752      60.700
2015    2       20    16   0    6.9569   504.1    6.747      60.731
2015    2       20    16   5    6.9566   504.3    6.741      60.761
2015    2       20    16  10    6.9568   504.6    6.735      60.790
2015    2       20    16  15    6.9566   504.8    6.729      60.817
2015    2       20    16  21    6.9564   505.1    6.723      60.844
2015    2       20    16  26    6.9559   505.3    6.716      60.869
2015    2       20    16  31    6.9558   505.6    6.710      60.894
2015    2       20    16  36    6.9555   505.8    6.703      60.917
2015    2       20    16  41    6.9548   506.1    6.696      60.940
2015    2       20    16  47    6.9546   506.3    6.689      60.961
2015    2       20    16  52    6.9538   506.6    6.682      60.982
2015    2       20    16  57    6.9534   506.8    6.674      61.002
2015    2       20    17   2    6.9526   507.1    6.667      61.021
2015    2       20    17   7    6.9519   507.3    6.659      61.039
2015    2       20    17  12    6.9513   507.6    6.652      61.056
2015    2       20    17  18    6.9502   507.8    6.644      61.073
2015    2       20    17  23    6.9494   508.1    6.636      61.089
2015    2       20    17  28    6.9484   508.3    6.629      61.104
2015    2       20    17  33    6.9477   508.6    6.621      61.118
2015    2       20    17  38    6.9466   508.8    6.613      61.132
2015    2       20    17  44    6.9453   509.1    6.605      61.145
2015    2       20    17  49    6.9444   509.3    6.597      61.158
2015    2       20    17  54    6.9432   509.5    6.589      61.170
2015    2       20    17  59    6.9420   509.8    6.581      61.182
2015    2       20    18   4    6.9407   510.0    6.573      61.194
2015    2       20    18   9    6.9394   510.3    6.565      61.205
2015    2       20    18  15    6.9380   510.5    6.557      61.216
2015    2       20    18  20    6.9364   510.8    6.549      61.226
2015    2       20    18  25    6.9349   511.0    6.541      61.237
2015    2       20    18  30    6.9335   511.2    6.534      61.247
2015    2       20    18  35    6.9323   511.5    6.526      61.256
2015    2       20    18  41    6.9305   511.7    6.518      61.265
2015    2       20    18  46    6.9292   512.0    6.510      61.274
2015    2       20    18  51    6.9276   512.2    6.502      61.283
2015    2       20    18  56    6.9260   512.4    6.494      61.291
2015    2       20    19   1    6.9240   512.7    6.486      61.299
2015    2       20    19   6    6.9223   512.9    6.478      61.306
2015    2       20    19  12    6.9206   513.1    6.470      61.313
2015    2       20    19  17    6.9192   513.4    6.462      61.320
2015    2       20    19  22    6.9174   513.6    6.454      61.327
2015    2       20    19  27    6.9156   513.8    6.446      61.333
2015    2       20    19  32    6.9135   514.1    6.439      61.340
2015    2       20    19  38    6.9120   514.3    6.431      61.347
2015    2       20    19  43    6.9098   514.5    6.424      61.354
2015    2       20    19  48    6.9080   514.7    6.416      61.361
2015    2       20    19  53    6.9062   515.0    6.409      61.369
2015    2       20    19  58    6.9047   515.2    6.401      61.377
2015    2       20    20   4    6.9025   515.4    6.394      61.385
2015    2       20    20   9    6.9007   515.6    6.387      61.393
2015    2       20    20  14    6.8988   515.8    6.380      61.402
2015    2       20    20  19    6.8970   516.1    6.373      61.410
2015    2       20    20  24    6.8952   516.3    6.366      61.420
2015    2       20    20  29    6.8937   516.5    6.360      61.432
2015    2       20    20  35    6.8918   516.7    6.353      61.444
2015    2       20    20  40    6.8896   516.9    6.346      61.458
2015    2       20    20  45    6.8876   517.1    6.340      61.472
2015    2       20    20  50    6.8857   517.4    6.333      61.487
2015    2       20    20  55    6.8841   517.6    6.327      61.503
2015    2       20    21   1    6.8816   517.8    6.320      61.518
2015    2       20    21   6    6.8795   518.0    6.313      61.534
2015    2       20    21  11    6.8778   518.3    6.307      61.549
2015    2       20    21  16    6.8751   518.5    6.300      61.565
2015    2       20    21  21    6.8729   518.7    6.293      61.580
2015    2       20    21  26    6.8705   518.9    6.286      61.594
2015    2       20    21  32    6.8681   519.1    6.278      61.609
2015    2       20    21  37    6.8655   519.4    6.271      61.622
2015    2       20    21  42    6.8634   519.6    6.263      61.634
2015    2       20    21  47    6.8603   519.8    6.255      61.645
2015    2       20    21  52    6.8576   520.0    6.248      61.654
2015    2       20    21  58    6.8552   520.3    6.239      61.663
2015    2       20    22   3    6.8524   520.5    6.231      61.670
2015    2       20    22   8    6.8495   520.7    6.223      61.676
2015    2       20    22  13    6.8466   520.9    6.215      61.681
2015    2       20    22  18    6.8431   521.1    6.206      61.684
2015    2       20    22  24    6.8400   521.4    6.198      61.687
2015    2       20    22  29    6.8369   521.6    6.189      61.688
2015    2       20    22  34    6.8342   521.8    6.180      61.689
2015    2       20    22  39    6.8305   522.0    6.171      61.689
2015    2       20    22  44    6.8273   522.2    6.162      61.688
2015    2       20    22  49    6.8244   522.4    6.153      61.685
2015    2       20    22  55    6.8211   522.6    6.144      61.682
2015    2       20    23   0    6.8177   522.9    6.135      61.678
2015    2       20    23   5    6.8138   523.1    6.126      61.674
2015    2       20    23  10    6.8103   523.3    6.117      61.668
2015    2       20    23  15    6.8069   523.5    6.108      61.662
2015    2       20    23  21    6.8038   523.7    6.098      61.655
2015    2       20    23  26    6.8003   523.9    6.089      61.648
2015    2       20    23  31    6.7962   524.1    6.080      61.640
2015    2       20    23  36    6.7931   524.3    6.070      61.631
2015    2       20    23  41    6.7890   524.5    6.061      61.622
2015    2       20    23  46    6.7853   524.7    6.052      61.612
2015    2       20    23  52    6.7821   524.9    6.042      61.602
2015    2       20    23  57    6.7779   525.1    6.033      61.591
2015    2       21     0   2    6.7746   525.3    6.024      61.580
2015    2       21     0   7    6.7709   525.5    6.014      61.569
2015    2       21     0  12    6.7671   525.7    6.005      61.557
2015    2       21     0  18    6.7632   525.9    5.996      61.545
2015    2       21     0  23    6.7590   526.1    5.986      61.532
2015    2       21     0  28    6.7555   526.3    5.977      61.519
2015    2       21     0  33    6.7516   526.5    5.968      61.506
2015    2       21     0  38    6.7477   526.7    5.958      61.492
2015    2       21     0  43    6.7437   526.9    5.949      61.478
2015    2       21     0  49    6.7397   527.0    5.940      61.464
2015    2       21     0  54    6.7353   527.2    5.931      61.449
2015    2       21     0  59    6.7317   527.4    5.922      61.434
2015    2       21     1   4    6.7273   527.6    5.913      61.419
2015    2       21     1   9    6.7232   527.8    5.904      61.404
