year    month   day   hour  minute  B_enl V_enl   n_enl       T_enl
[year] [month] [day] [hour][minute] [nT]  [km/s]  [cm-3]      [kK]
2015    2        9     0   2    6.3924   509.5    5.211      59.752
2015    2        9     0   7    6.3918   509.6    5.210      59.772
2015    2        9     0  13    6.3910   509.7    5.209      59.792
2015    2        9     0  18    6.3904   509.8    5.208      59.813
2015    2        9     0  23    6.3896   509.8    5.207      59.834
2015    2        9     0  28    6.3890   509.9    5.206      59.855
2015    2        9     0  34    6.3882   510.0    5.205      59.877
2015    2        9     0  39    6.3874   510.1    5.203      59.899
2015    2        9     0  44    6.3867   510.2    5.202      59.922
2015    2        9     0  49    6.3859   510.3    5.201      59.944
2015    2        9     0  55    6.3852   510.4    5.200      59.967
2015    2        9     1   0    6.3844   510.4    5.198      59.990
2015    2        9     1   5    6.3836   510.5    5.197      60.012
2015    2        9     1  10    6.3828   510.6    5.196      60.035
2015    2        9     1  16    6.3820   510.7    5.194      60.058
2015    2        9     1  21    6.3812   510.8    5.193      60.081
2015    2        9     1  26    6.3805   510.8    5.192      60.104
2015    2        9     1  31    6.3797   510.9    5.190      60.127
2015    2        9     1  37    6.3789   511.0    5.189      60.150
2015    2        9     1  42    6.3781   511.1    5.188      60.174
2015    2        9     1  47    6.3773   511.2    5.186      60.199
2015    2        9     1  52    6.3766   511.3    5.185      60.223
2015    2        9     1  58    6.3758   511.3    5.183      60.248
2015    2        9     2   3    6.3750   511.4    5.182      60.274
2015    2        9     2   8    6.3742   511.5    5.180      60.299
2015    2        9     2  13    6.3735   511.6    5.178      60.325
2015    2        9     2  19    6.3728   511.7    5.177      60.350
2015    2        9     2  24    6.3721   511.8    5.175      60.376
2015    2        9     2  29    6.3713   511.8    5.173      60.401
2015    2        9     2  35    6.3706   511.9    5.171      60.427
2015    2        9     2  40    6.3698   512.0    5.170      60.452
2015    2        9     2  45    6.3691   512.1    5.168      60.477
2015    2        9     2  50    6.3684   512.2    5.166      60.502
2015    2        9     2  56    6.3677   512.2    5.164      60.526
2015    2        9     3   1    6.3670   512.3    5.162      60.551
2015    2        9     3   6    6.3662   512.4    5.160      60.575
2015    2        9     3  11    6.3655   512.5    5.158      60.598
2015    2        9     3  17    6.3648   512.6    5.156      60.622
2015    2        9     3  22    6.3642   512.7    5.154      60.645
2015    2        9     3  27    6.3635   512.7    5.151      60.668
2015    2        9     3  32    6.3628   512.8    5.149      60.690
2015    2        9     3  38    6.3622   512.9    5.147      60.712
2015    2        9     3  43    6.3616   513.0    5.145      60.735
2015    2        9     3  48    6.3609   513.0    5.143      60.756
2015    2        9     3  53    6.3603   513.1    5.141      60.778
2015    2        9     3  59    6.3597   513.2    5.138      60.800
2015    2        9     4   4    6.3591   513.3    5.136      60.821
2015    2        9     4   9    6.3586   513.4    5.134      60.842
2015    2        9     4  14    6.3580   513.4    5.132      60.862
2015    2        9     4  20    6.3575   513.5    5.130      60.883
2015    2        9     4  25    6.3571   513.6    5.128      60.904
2015    2        9     4  30    6.3566   513.7    5.126      60.924
2015    2        9     4  35    6.3561   513.8    5.123      60.944
2015    2        9     4  41    6.3556   513.8    5.121      60.965
2015    2        9     4  46    6.3552   513.9    5.119      60.985
2015    2        9     4  51    6.3548   514.0    5.117      61.005
2015    2        9     4  56    6.3544   514.1    5.115      61.025
2015    2        9     5   2    6.3540   514.2    5.114      61.045
2015    2        9     5   7    6.3536   514.2    5.112      61.065
2015    2        9     5  12    6.3533   514.3    5.110      61.085
2015    2        9     5  17    6.3530   514.4    5.108      61.105
2015    2        9     5  23    6.3527   514.5    5.106      61.125
2015    2        9     5  28    6.3525   514.6    5.105      61.145
2015    2        9     5  33    6.3522   514.6    5.103      61.165
2015    2        9     5  39    6.3519   514.7    5.102      61.185
2015    2        9     5  44    6.3517   514.8    5.100      61.206
2015    2        9     5  49    6.3515   514.9    5.099      61.226
2015    2        9     5  54    6.3514   515.0    5.097      61.247
2015    2        9     6   0    6.3512   515.0    5.096      61.268
2015    2        9     6   5    6.3510   515.1    5.095      61.289
2015    2        9     6  10    6.3509   515.2    5.094      61.310
2015    2        9     6  15    6.3507   515.3    5.093      61.331
2015    2        9     6  21    6.3506   515.4    5.092      61.352
2015    2        9     6  26    6.3505   515.5    5.091      61.374
2015    2        9     6  31    6.3503   515.5    5.091      61.396
2015    2        9     6  36    6.3501   515.6    5.090      61.418
2015    2        9     6  42    6.3499   515.7    5.090      61.442
2015    2        9     6  47    6.3498   515.8    5.089      61.465
2015    2        9     6  52    6.3495   515.9    5.089      61.490
2015    2        9     6  57    6.3493   516.0    5.088      61.516
2015    2        9     7   3    6.3491   516.1    5.088      61.542
2015    2        9     7   8    6.3488   516.2    5.088      61.570
2015    2        9     7  13    6.3485   516.3    5.087      61.598
2015    2        9     7  18    6.3482   516.4    5.087      61.628
2015    2        9     7  24    6.3478   516.4    5.086      61.658
2015    2        9     7  29    6.3474   516.5    5.086      61.690
2015    2        9     7  34    6.3470   516.6    5.085      61.723
2015    2        9     7  39    6.3466   516.7    5.085      61.757
2015    2        9     7  45    6.3462   516.8    5.084      61.792
2015    2        9     7  50    6.3457   516.9    5.083      61.827
2015    2        9     7  55    6.3452   517.0    5.082      61.863
2015    2        9     8   0    6.3447   517.1    5.081      61.900
2015    2        9     8   6    6.3442   517.2    5.080      61.936
2015    2        9     8  11    6.3437   517.3    5.079      61.973
2015    2        9     8  16    6.3431   517.4    5.078      62.010
2015    2        9     8  21    6.3426   517.5    5.077      62.047
2015    2        9     8  27    6.3420   517.6    5.076      62.084
2015    2        9     8  32    6.3415   517.7    5.074      62.120
2015    2        9     8  37    6.3409   517.8    5.073      62.157
2015    2        9     8  42    6.3403   517.8    5.071      62.193
2015    2        9     8  48    6.3398   517.9    5.069      62.228
2015    2        9     8  53    6.3392   518.0    5.068      62.264
2015    2        9     8  58    6.3387   518.1    5.066      62.299
2015    2        9     9   4    6.3381   518.2    5.064      62.333
2015    2        9     9   9    6.3376   518.3    5.063      62.367
2015    2        9     9  14    6.3371   518.4    5.061      62.401
2015    2        9     9  19    6.3365   518.5    5.059      62.434
2015    2        9     9  25    6.3360   518.6    5.057      62.467
2015    2        9     9  30    6.3355   518.7    5.055      62.499
2015    2        9     9  35    6.3350   518.7    5.053      62.531
2015    2        9     9  40    6.3346   518.8    5.051      62.563
2015    2        9     9  46    6.3342   518.9    5.049      62.594
2015    2        9     9  51    6.3337   519.0    5.047      62.624
2015    2        9     9  56    6.3332   519.1    5.044      62.655
2015    2        9    10   1    6.3328   519.2    5.042      62.685
2015    2        9    10   7    6.3324   519.3    5.040      62.714
2015    2        9    10  12    6.3321   519.4    5.038      62.743
2015    2        9    10  17    6.3317   519.4    5.036      62.772
2015    2        9    10  22    6.3314   519.5    5.033      62.800
2015    2        9    10  28    6.3311   519.6    5.031      62.828
2015    2        9    10  33    6.3308   519.7    5.029      62.856
2015    2        9    10  38    6.3305   519.8    5.027      62.884
2015    2        9    10  43    6.3303   519.9    5.025      62.911
2015    2        9    10  49    6.3300   520.0    5.022      62.939
2015    2        9    10  54    6.3298   520.0    5.020      62.966
2015    2        9    10  59    6.3297   520.1    5.018      62.993
2015    2        9    11   4    6.3295   520.2    5.016      63.020
2015    2        9    11  10    6.3294   520.3    5.014      63.047
2015    2        9    11  15    6.3293   520.4    5.012      63.074
2015    2        9    11  20    6.3292   520.5    5.010      63.101
2015    2        9    11  25    6.3291   520.6    5.008      63.128
2015    2        9    11  31    6.3291   520.7    5.006      63.156
2015    2        9    11  36    6.3291   520.7    5.004      63.183
2015    2        9    11  41    6.3291   520.8    5.002      63.211
2015    2        9    11  46    6.3292   520.9    5.001      63.239
2015    2        9    11  52    6.3292   521.0    4.999      63.267
2015    2        9    11  57    6.3293   521.1    4.997      63.295
2015    2        9    12   2    6.3293   521.2    4.996      63.324
2015    2        9    12   8    6.3294   521.3    4.994      63.353
2015    2        9    12  13    6.3295   521.4    4.993      63.382
2015    2        9    12  18    6.3296   521.5    4.992      63.412
2015    2        9    12  23    6.3297   521.5    4.990      63.442
2015    2        9    12  29    6.3299   521.6    4.989      63.472
2015    2        9    12  34    6.3300   521.7    4.988      63.503
2015    2        9    12  39    6.3301   521.8    4.987      63.534
2015    2        9    12  44    6.3302   521.9    4.986      63.565
2015    2        9    12  50    6.3303   522.0    4.985      63.596
2015    2        9    12  55    6.3303   522.1    4.984      63.628
2015    2        9    13   0    6.3304   522.2    4.984      63.660
2015    2        9    13   5    6.3304   522.3    4.983      63.693
2015    2        9    13  11    6.3304   522.4    4.983      63.725
2015    2        9    13  16    6.3304   522.5    4.982      63.758
2015    2        9    13  21    6.3304   522.6    4.982      63.791
2015    2        9    13  26    6.3304   522.7    4.982      63.826
2015    2        9    13  32    6.3303   522.8    4.982      63.861
2015    2        9    13  37    6.3302   522.9    4.982      63.898
2015    2        9    13  42    6.3301   523.0    4.981      63.936
2015    2        9    13  47    6.3300   523.1    4.981      63.976
2015    2        9    13  53    6.3298   523.2    4.981      64.016
2015    2        9    13  58    6.3296   523.3    4.981      64.058
2015    2        9    14   3    6.3294   523.4    4.981      64.102
2015    2        9    14   8    6.3292   523.5    4.981      64.146
2015    2        9    14  14    6.3289   523.6    4.980      64.192
2015    2        9    14  19    6.3286   523.7    4.980      64.238
2015    2        9    14  24    6.3283   523.8    4.979      64.286
2015    2        9    14  29    6.3279   523.9    4.979      64.334
2015    2        9    14  35    6.3276   524.0    4.978      64.383
2015    2        9    14  40    6.3272   524.1    4.977      64.431
2015    2        9    14  45    6.3268   524.3    4.976      64.480
2015    2        9    14  50    6.3264   524.4    4.975      64.528
2015    2        9    14  56    6.3260   524.5    4.974      64.577
2015    2        9    15   1    6.3255   524.6    4.973      64.625
2015    2        9    15   6    6.3251   524.7    4.972      64.673
2015    2        9    15  12    6.3247   524.8    4.970      64.721
2015    2        9    15  17    6.3242   524.9    4.969      64.768
2015    2        9    15  22    6.3237   525.0    4.967      64.815
2015    2        9    15  27    6.3233   525.1    4.966      64.861
2015    2        9    15  33    6.3228   525.2    4.964      64.906
2015    2        9    15  38    6.3224   525.3    4.962      64.951
2015    2        9    15  43    6.3220   525.4    4.961      64.996
2015    2        9    15  48    6.3216   525.5    4.959      65.039
2015    2        9    15  54    6.3211   525.6    4.957      65.082
2015    2        9    15  59    6.3207   525.7    4.955      65.125
2015    2        9    16   4    6.3203   525.9    4.953      65.166
2015    2        9    16   9    6.3199   526.0    4.951      65.207
2015    2        9    16  15    6.3195   526.1    4.949      65.248
2015    2        9    16  20    6.3191   526.2    4.947      65.288
2015    2        9    16  25    6.3188   526.3    4.944      65.327
2015    2        9    16  30    6.3184   526.4    4.942      65.365
2015    2        9    16  36    6.3181   526.5    4.940      65.403
2015    2        9    16  41    6.3178   526.6    4.938      65.441
2015    2        9    16  46    6.3175   526.7    4.936      65.478
2015    2        9    16  51    6.3173   526.8    4.933      65.514
2015    2        9    16  57    6.3170   526.9    4.931      65.550
2015    2        9    17   2    6.3168   527.0    4.929      65.585
2015    2        9    17   7    6.3166   527.1    4.926      65.620
2015    2        9    17  12    6.3164   527.2    4.924      65.655
2015    2        9    17  18    6.3162   527.3    4.922      65.689
2015    2        9    17  23    6.3160   527.4    4.919      65.723
2015    2        9    17  28    6.3159   527.5    4.917      65.757
2015    2        9    17  33    6.3158   527.6    4.915      65.790
2015    2        9    17  39    6.3157   527.7    4.913      65.823
2015    2        9    17  44    6.3156   527.8    4.910      65.856
2015    2        9    17  49    6.3156   527.9    4.908      65.888
2015    2        9    17  54    6.3156   528.0    4.906      65.921
2015    2        9    18   0    6.3156   528.1    4.904      65.953
2015    2        9    18   5    6.3156   528.2    4.902      65.986
2015    2        9    18  10    6.3156   528.3    4.900      66.018
2015    2        9    18  15    6.3157   528.4    4.898      66.051
2015    2        9    18  21    6.3158   528.6    4.896      66.083
2015    2        9    18  26    6.3158   528.7    4.894      66.116
2015    2        9    18  31    6.3159   528.8    4.892      66.149
2015    2        9    18  37    6.3160   528.9    4.890      66.182
2015    2        9    18  42    6.3160   529.0    4.889      66.215
2015    2        9    18  47    6.3161   529.1    4.887      66.248
2015    2        9    18  52    6.3162   529.2    4.885      66.282
2015    2        9    18  58    6.3163   529.3    4.884      66.316
2015    2        9    19   3    6.3163   529.4    4.883      66.350
2015    2        9    19   8    6.3164   529.5    4.881      66.385
2015    2        9    19  13    6.3164   529.6    4.880      66.420
2015    2        9    19  19    6.3164   529.7    4.879      66.455
2015    2        9    19  24    6.3164   529.8    4.878      66.491
2015    2        9    19  29    6.3164   530.0    4.877      66.527
2015    2        9    19  34    6.3164   530.1    4.877      66.564
2015    2        9    19  40    6.3163   530.2    4.876      66.601
2015    2        9    19  45    6.3162   530.3    4.875      66.640
2015    2        9    19  50    6.3161   530.4    4.875      66.680
2015    2        9    19  55    6.3159   530.5    4.874      66.721
2015    2        9    20   1    6.3157   530.6    4.874      66.764
2015    2        9    20   6    6.3155   530.7    4.874      66.808
2015    2        9    20  11    6.3153   530.9    4.873      66.853
2015    2        9    20  16    6.3150   531.0    4.873      66.900
2015    2        9    20  22    6.3147   531.1    4.873      66.949
2015    2        9    20  27    6.3144   531.2    4.873      66.999
2015    2        9    20  32    6.3140   531.4    4.872      67.052
2015    2        9    20  37    6.3136   531.5    4.872      67.105
2015    2        9    20  43    6.3132   531.6    4.871      67.160
2015    2        9    20  48    6.3128   531.7    4.871      67.215
2015    2        9    20  53    6.3123   531.8    4.870      67.271
2015    2        9    20  58    6.3118   532.0    4.869      67.327
2015    2        9    21   4    6.3113   532.1    4.869      67.383
2015    2        9    21   9    6.3108   532.2    4.868      67.438
2015    2        9    21  14    6.3102   532.4    4.867      67.494
2015    2        9    21  19    6.3096   532.5    4.865      67.549
2015    2        9    21  25    6.3091   532.6    4.864      67.603
2015    2        9    21  30    6.3085   532.7    4.863      67.657
2015    2        9    21  35    6.3079   532.9    4.861      67.710
2015    2        9    21  41    6.3072   533.0    4.860      67.762
2015    2        9    21  46    6.3066   533.1    4.858      67.813
2015    2        9    21  51    6.3060   533.3    4.856      67.864
2015    2        9    21  56    6.3054   533.4    4.854      67.913
2015    2        9    22   2    6.3047   533.5    4.852      67.961
2015    2        9    22   7    6.3041   533.6    4.850      68.008
2015    2        9    22  12    6.3034   533.8    4.848      68.055
2015    2        9    22  17    6.3028   533.9    4.846      68.100
2015    2        9    22  23    6.3021   534.0    4.843      68.145
2015    2        9    22  28    6.3015   534.1    4.841      68.189
2015    2        9    22  33    6.3008   534.3    4.839      68.232
2015    2        9    22  38    6.3002   534.4    4.836      68.274
2015    2        9    22  44    6.2996   534.5    4.834      68.315
2015    2        9    22  49    6.2989   534.7    4.831      68.356
2015    2        9    22  54    6.2983   534.8    4.828      68.395
2015    2        9    22  59    6.2976   534.9    4.826      68.434
2015    2        9    23   5    6.2970   535.0    4.823      68.472
2015    2        9    23  10    6.2964   535.2    4.820      68.509
2015    2        9    23  15    6.2958   535.3    4.818      68.546
2015    2        9    23  20    6.2952   535.4    4.815      68.582
2015    2        9    23  26    6.2946   535.5    4.812      68.617
2015    2        9    23  31    6.2940   535.7    4.809      68.652
2015    2        9    23  36    6.2934   535.8    4.806      68.686
2015    2        9    23  41    6.2929   535.9    4.803      68.720
2015    2        9    23  47    6.2923   536.0    4.801      68.753
2015    2        9    23  52    6.2918   536.2    4.798      68.785
2015    2        9    23  57    6.2913   536.3    4.795      68.818
2015    2       10     0   2    6.2908   536.4    4.792      68.850
2015    2       10     0   8    6.2903   536.5    4.789      68.881
2015    2       10     0  13    6.2898   536.7    4.786      68.912
2015    2       10     0  18    6.2894   536.8    4.784      68.943
2015    2       10     0  23    6.2890   536.9    4.781      68.973
2015    2       10     0  29    6.2886   537.0    4.778      69.004
2015    2       10     0  34    6.2882   537.2    4.776      69.034
2015    2       10     0  39    6.2879   537.3    4.773      69.064
2015    2       10     0  45    6.2875   537.4    4.771      69.095
2015    2       10     0  50    6.2872   537.5    4.768      69.125
2015    2       10     0  55    6.2869   537.7    4.766      69.155
2015    2       10     1   0    6.2866   537.8    4.764      69.186
2015    2       10     1   6    6.2863   537.9    4.761      69.217
2015    2       10     1  11    6.2860   538.0    4.759      69.248
2015    2       10     1  16    6.2857   538.2    4.757      69.279
2015    2       10     1  21    6.2853   538.3    4.756      69.311
2015    2       10     1  27    6.2850   538.4    4.754      69.343
2015    2       10     1  32    6.2846   538.6    4.752      69.377
