year    month   day   hour  minute  B_enl V_enl   n_enl       T_enl
[year] [month] [day] [hour][minute] [nT]  [km/s]  [cm-3]      [kK]
2015    2       28     0   4    5.1815   657.4    2.834      61.572
2015    2       28     0  10    5.1795   657.3    2.834      61.539
2015    2       28     0  15    5.1774   657.2    2.833      61.507
2015    2       28     0  20    5.1754   657.1    2.832      61.474
2015    2       28     0  25    5.1733   657.0    2.832      61.442
2015    2       28     0  30    5.1713   656.9    2.831      61.409
2015    2       28     0  36    5.1692   656.8    2.830      61.377
2015    2       28     0  41    5.1671   656.7    2.830      61.345
2015    2       28     0  46    5.1651   656.6    2.829      61.313
2015    2       28     0  51    5.1631   656.5    2.828      61.282
2015    2       28     0  57    5.1610   656.4    2.828      61.250
2015    2       28     1   2    5.1590   656.3    2.827      61.219
2015    2       28     1   7    5.1570   656.1    2.827      61.187
2015    2       28     1  12    5.1550   656.0    2.826      61.156
2015    2       28     1  17    5.1529   655.9    2.825      61.125
2015    2       28     1  23    5.1509   655.8    2.825      61.094
2015    2       28     1  28    5.1489   655.7    2.824      61.063
2015    2       28     1  33    5.1468   655.6    2.824      61.032
2015    2       28     1  38    5.1448   655.5    2.823      61.002
2015    2       28     1  43    5.1428   655.4    2.823      60.971
2015    2       28     1  49    5.1408   655.3    2.822      60.941
2015    2       28     1  54    5.1388   655.1    2.822      60.911
2015    2       28     1  59    5.1368   655.0    2.821      60.881
2015    2       28     2   4    5.1348   654.9    2.821      60.851
2015    2       28     2   9    5.1328   654.8    2.820      60.822
2015    2       28     2  15    5.1308   654.7    2.820      60.792
2015    2       28     2  20    5.1288   654.6    2.820      60.763
2015    2       28     2  25    5.1268   654.5    2.819      60.733
2015    2       28     2  30    5.1248   654.3    2.819      60.704
2015    2       28     2  36    5.1228   654.2    2.818      60.675
2015    2       28     2  41    5.1208   654.1    2.818      60.647
2015    2       28     2  46    5.1188   654.0    2.818      60.618
2015    2       28     2  51    5.1168   653.9    2.818      60.590
2015    2       28     2  56    5.1148   653.8    2.817      60.561
2015    2       28     3   2    5.1128   653.7    2.817      60.533
2015    2       28     3   7    5.1107   653.5    2.817      60.505
2015    2       28     3  12    5.1087   653.4    2.817      60.477
2015    2       28     3  17    5.1067   653.3    2.817      60.448
2015    2       28     3  22    5.1047   653.2    2.817      60.420
2015    2       28     3  28    5.1026   653.1    2.816      60.392
2015    2       28     3  33    5.1005   653.0    2.816      60.364
2015    2       28     3  38    5.0985   652.9    2.816      60.336
2015    2       28     3  43    5.0964   652.7    2.816      60.308
2015    2       28     3  48    5.0943   652.6    2.816      60.280
2015    2       28     3  54    5.0922   652.5    2.816      60.252
2015    2       28     3  59    5.0901   652.4    2.816      60.224
2015    2       28     4   4    5.0880   652.3    2.816      60.195
2015    2       28     4   9    5.0859   652.2    2.816      60.167
2015    2       28     4  14    5.0838   652.0    2.816      60.138
2015    2       28     4  20    5.0816   651.9    2.816      60.109
2015    2       28     4  25    5.0795   651.8    2.816      60.080
2015    2       28     4  30    5.0773   651.7    2.816      60.051
2015    2       28     4  35    5.0751   651.6    2.816      60.021
2015    2       28     4  40    5.0729   651.4    2.816      59.991
2015    2       28     4  46    5.0708   651.3    2.816      59.961
2015    2       28     4  51    5.0686   651.2    2.815      59.931
2015    2       28     4  56    5.0663   651.1    2.815      59.900
2015    2       28     5   1    5.0641   650.9    2.815      59.868
2015    2       28     5   6    5.0619   650.8    2.815      59.837
2015    2       28     5  12    5.0597   650.7    2.815      59.805
2015    2       28     5  17    5.0575   650.6    2.815      59.773
2015    2       28     5  22    5.0553   650.4    2.815      59.741
2015    2       28     5  27    5.0531   650.3    2.815      59.708
2015    2       28     5  32    5.0508   650.2    2.815      59.675
2015    2       28     5  38    5.0486   650.0    2.815      59.642
2015    2       28     5  43    5.0464   649.9    2.815      59.608
2015    2       28     5  48    5.0442   649.8    2.815      59.574
2015    2       28     5  53    5.0419   649.6    2.814      59.540
2015    2       28     5  58    5.0397   649.5    2.814      59.506
2015    2       28     6   4    5.0375   649.4    2.814      59.472
2015    2       28     6   9    5.0353   649.2    2.814      59.438
2015    2       28     6  14    5.0331   649.1    2.814      59.403
2015    2       28     6  19    5.0309   649.0    2.814      59.368
2015    2       28     6  24    5.0287   648.8    2.814      59.333
2015    2       28     6  30    5.0265   648.7    2.814      59.298
2015    2       28     6  35    5.0243   648.5    2.814      59.263
2015    2       28     6  40    5.0222   648.4    2.814      59.228
2015    2       28     6  45    5.0200   648.3    2.814      59.193
2015    2       28     6  50    5.0178   648.1    2.814      59.157
2015    2       28     6  56    5.0157   648.0    2.814      59.122
2015    2       28     7   1    5.0135   647.8    2.814      59.086
2015    2       28     7   6    5.0114   647.7    2.814      59.050
2015    2       28     7  11    5.0093   647.5    2.814      59.014
2015    2       28     7  16    5.0072   647.4    2.814      58.978
2015    2       28     7  22    5.0050   647.3    2.814      58.942
2015    2       28     7  27    5.0029   647.1    2.814      58.906
2015    2       28     7  32    5.0008   647.0    2.814      58.870
2015    2       28     7  37    4.9988   646.8    2.814      58.834
2015    2       28     7  42    4.9967   646.7    2.814      58.798
2015    2       28     7  48    4.9946   646.5    2.814      58.762
2015    2       28     7  53    4.9925   646.4    2.813      58.726
2015    2       28     7  58    4.9904   646.2    2.813      58.690
2015    2       28     8   3    4.9883   646.1    2.813      58.654
2015    2       28     8   8    4.9863   645.9    2.813      58.617
2015    2       28     8  14    4.9842   645.8    2.813      58.581
2015    2       28     8  19    4.9821   645.6    2.813      58.544
2015    2       28     8  24    4.9801   645.5    2.812      58.507
2015    2       28     8  29    4.9780   645.3    2.812      58.470
2015    2       28     8  34    4.9760   645.2    2.812      58.432
2015    2       28     8  40    4.9739   645.0    2.812      58.395
2015    2       28     8  45    4.9718   644.9    2.811      58.357
2015    2       28     8  50    4.9698   644.7    2.811      58.319
2015    2       28     8  55    4.9678   644.6    2.811      58.280
2015    2       28     9   1    4.9657   644.4    2.810      58.242
2015    2       28     9   6    4.9637   644.3    2.810      58.203
2015    2       28     9  11    4.9616   644.1    2.810      58.164
2015    2       28     9  16    4.9595   644.0    2.809      58.124
2015    2       28     9  21    4.9575   643.8    2.809      58.085
2015    2       28     9  27    4.9554   643.7    2.808      58.045
2015    2       28     9  32    4.9533   643.5    2.808      58.005
2015    2       28     9  37    4.9512   643.4    2.807      57.964
2015    2       28     9  42    4.9491   643.2    2.807      57.923
2015    2       28     9  47    4.9470   643.0    2.806      57.883
2015    2       28     9  53    4.9450   642.9    2.806      57.841
2015    2       28     9  58    4.9429   642.7    2.805      57.800
2015    2       28    10   3    4.9408   642.6    2.805      57.758
2015    2       28    10   8    4.9387   642.4    2.804      57.717
2015    2       28    10  14    4.9365   642.3    2.804      57.675
2015    2       28    10  19    4.9345   642.1    2.803      57.632
2015    2       28    10  24    4.9323   641.9    2.803      57.590
2015    2       28    10  29    4.9302   641.8    2.802      57.547
2015    2       28    10  34    4.9280   641.6    2.802      57.505
2015    2       28    10  40    4.9259   641.5    2.801      57.462
2015    2       28    10  45    4.9237   641.3    2.801      57.419
2015    2       28    10  50    4.9216   641.1    2.800      57.376
2015    2       28    10  55    4.9194   641.0    2.799      57.333
2015    2       28    11   0    4.9172   640.8    2.799      57.289
2015    2       28    11   6    4.9150   640.7    2.798      57.246
2015    2       28    11  11    4.9128   640.5    2.798      57.202
2015    2       28    11  16    4.9106   640.3    2.797      57.158
2015    2       28    11  21    4.9084   640.2    2.797      57.115
2015    2       28    11  26    4.9062   640.0    2.796      57.071
2015    2       28    11  32    4.9039   639.9    2.796      57.027
2015    2       28    11  37    4.9017   639.7    2.795      56.982
2015    2       28    11  42    4.8994   639.5    2.795      56.938
2015    2       28    11  47    4.8971   639.4    2.794      56.893
2015    2       28    11  52    4.8949   639.2    2.794      56.849
2015    2       28    11  58    4.8926   639.0    2.794      56.804
2015    2       28    12   3    4.8903   638.9    2.793      56.759
2015    2       28    12   8    4.8880   638.7    2.793      56.713
2015    2       28    12  13    4.8857   638.5    2.792      56.668
2015    2       28    12  18    4.8834   638.4    2.792      56.623
2015    2       28    12  24    4.8811   638.2    2.791      56.577
2015    2       28    12  29    4.8788   638.0    2.791      56.531
2015    2       28    12  34    4.8765   637.8    2.791      56.486
2015    2       28    12  39    4.8742   637.7    2.790      56.440
2015    2       28    12  44    4.8719   637.5    2.790      56.394
2015    2       28    12  50    4.8696   637.3    2.790      56.348
2015    2       28    12  55    4.8673   637.1    2.790      56.303
2015    2       28    13   0    4.8650   637.0    2.789      56.257
2015    2       28    13   5    4.8627   636.8    2.789      56.212
2015    2       28    13  10    4.8604   636.6    2.789      56.167
2015    2       28    13  16    4.8581   636.4    2.789      56.122
2015    2       28    13  21    4.8558   636.2    2.789      56.078
2015    2       28    13  26    4.8535   636.0    2.789      56.034
2015    2       28    13  31    4.8512   635.8    2.789      55.990
2015    2       28    13  36    4.8490   635.7    2.789      55.947
2015    2       28    13  41    4.8467   635.5    2.790      55.904
2015    2       28    13  47    4.8444   635.3    2.790      55.861
2015    2       28    13  52    4.8422   635.1    2.790      55.819
2015    2       28    13  57    4.8400   634.9    2.790      55.778
2015    2       28    14   2    4.8378   634.7    2.791      55.737
2015    2       28    14   7    4.8356   634.5    2.791      55.697
2015    2       28    14  13    4.8333   634.3    2.792      55.656
2015    2       28    14  18    4.8312   634.1    2.792      55.616
2015    2       28    14  23    4.8290   633.9    2.793      55.577
2015    2       28    14  28    4.8269   633.7    2.793      55.538
2015    2       28    14  33    4.8247   633.5    2.794      55.499
2015    2       28    14  39    4.8225   633.3    2.795      55.460
2015    2       28    14  44    4.8204   633.1    2.795      55.422
2015    2       28    14  49    4.8183   632.9    2.796      55.384
2015    2       28    14  54    4.8161   632.7    2.797      55.346
2015    2       28    14  59    4.8140   632.5    2.798      55.308
2015    2       28    15   5    4.8119   632.3    2.799      55.270
2015    2       28    15  10    4.8098   632.1    2.799      55.232
2015    2       28    15  15    4.8077   631.9    2.800      55.194
2015    2       28    15  20    4.8056   631.7    2.801      55.155
2015    2       28    15  25    4.8035   631.5    2.802      55.116
2015    2       28    15  31    4.8013   631.3    2.802      55.077
2015    2       28    15  36    4.7992   631.1    2.803      55.036
2015    2       28    15  41    4.7971   630.9    2.803      54.996
2015    2       28    15  46    4.7950   630.7    2.804      54.954
2015    2       28    15  51    4.7928   630.5    2.805      54.912
2015    2       28    15  57    4.7907   630.3    2.805      54.869
2015    2       28    16   2    4.7885   630.1    2.806      54.826
2015    2       28    16   7    4.7864   629.9    2.806      54.782
2015    2       28    16  12    4.7843   629.6    2.806      54.737
2015    2       28    16  17    4.7821   629.4    2.807      54.692
2015    2       28    16  23    4.7799   629.2    2.807      54.646
2015    2       28    16  28    4.7778   629.0    2.807      54.599
2015    2       28    16  33    4.7756   628.8    2.807      54.552
2015    2       28    16  38    4.7734   628.6    2.808      54.505
2015    2       28    16  43    4.7712   628.4    2.808      54.457
2015    2       28    16  49    4.7690   628.2    2.808      54.408
2015    2       28    16  54    4.7668   628.0    2.808      54.359
2015    2       28    16  59    4.7646   627.8    2.808      54.310
2015    2       28    17   4    4.7624   627.6    2.808      54.260
2015    2       28    17   9    4.7602   627.3    2.808      54.210
2015    2       28    17  15    4.7580   627.1    2.808      54.160
2015    2       28    17  20    4.7558   626.9    2.808      54.109
2015    2       28    17  25    4.7536   626.7    2.808      54.058
2015    2       28    17  30    4.7514   626.5    2.808      54.006
2015    2       28    17  35    4.7491   626.3    2.808      53.954
2015    2       28    17  41    4.7469   626.1    2.808      53.902
2015    2       28    17  46    4.7447   625.9    2.808      53.849
2015    2       28    17  51    4.7424   625.7    2.807      53.796
2015    2       28    17  56    4.7402   625.4    2.807      53.743
2015    2       28    18   1    4.7379   625.2    2.807      53.690
2015    2       28    18   6    4.7357   625.0    2.807      53.636
2015    2       28    18  12    4.7334   624.8    2.807      53.582
2015    2       28    18  17    4.7312   624.6    2.806      53.528
2015    2       28    18  22    4.7289   624.4    2.806      53.474
2015    2       28    18  27    4.7267   624.2    2.806      53.419
2015    2       28    18  32    4.7244   624.0    2.806      53.365
2015    2       28    18  38    4.7221   623.7    2.805      53.310
2015    2       28    18  43    4.7199   623.5    2.805      53.255
2015    2       28    18  48    4.7176   623.3    2.805      53.200
2015    2       28    18  53    4.7153   623.1    2.805      53.145
2015    2       28    18  58    4.7131   622.9    2.804      53.090
2015    2       28    19   4    4.7108   622.7    2.804      53.034
2015    2       28    19   9    4.7086   622.4    2.804      52.979
2015    2       28    19  14    4.7063   622.2    2.804      52.924
2015    2       28    19  19    4.7041   622.0    2.803      52.869
2015    2       28    19  24    4.7019   621.8    2.803      52.813
2015    2       28    19  30    4.6996   621.6    2.803      52.758
2015    2       28    19  35    4.6974   621.3    2.803      52.703
2015    2       28    19  40    4.6952   621.1    2.803      52.648
2015    2       28    19  45    4.6930   620.9    2.803      52.593
2015    2       28    19  50    4.6908   620.7    2.803      52.539
2015    2       28    19  56    4.6886   620.5    2.803      52.484
2015    2       28    20   1    4.6864   620.2    2.803      52.430
2015    2       28    20   6    4.6842   620.0    2.803      52.375
2015    2       28    20  11    4.6820   619.8    2.803      52.321
2015    2       28    20  16    4.6798   619.6    2.803      52.267
2015    2       28    20  22    4.6776   619.3    2.803      52.213
2015    2       28    20  27    4.6755   619.1    2.803      52.159
2015    2       28    20  32    4.6733   618.9    2.803      52.105
2015    2       28    20  37    4.6711   618.7    2.803      52.052
2015    2       28    20  42    4.6690   618.4    2.804      51.998
2015    2       28    20  48    4.6668   618.2    2.804      51.944
2015    2       28    20  53    4.6647   618.0    2.804      51.891
2015    2       28    20  58    4.6625   617.7    2.804      51.837
2015    2       28    21   3    4.6604   617.5    2.804      51.784
2015    2       28    21   8    4.6582   617.3    2.805      51.730
2015    2       28    21  14    4.6561   617.0    2.805      51.677
2015    2       28    21  19    4.6540   616.8    2.805      51.623
2015    2       28    21  24    4.6518   616.5    2.805      51.570
2015    2       28    21  29    4.6497   616.3    2.805      51.517
2015    2       28    21  34    4.6475   616.1    2.806      51.464
2015    2       28    21  39    4.6454   615.8    2.806      51.411
2015    2       28    21  45    4.6433   615.6    2.806      51.359
2015    2       28    21  50    4.6413   615.3    2.807      51.306
2015    2       28    21  55    4.6392   615.1    2.807      51.254
2015    2       28    22   0    4.6371   614.8    2.807      51.201
2015    2       28    22   5    4.6350   614.6    2.808      51.149
2015    2       28    22  11    4.6330   614.3    2.808      51.097
2015    2       28    22  16    4.6309   614.1    2.809      51.045
2015    2       28    22  21    4.6289   613.8    2.809      50.993
2015    2       28    22  26    4.6269   613.6    2.810      50.941
2015    2       28    22  31    4.6248   613.3    2.810      50.889
2015    2       28    22  37    4.6228   613.1    2.811      50.838
2015    2       28    22  42    4.6208   612.8    2.811      50.786
2015    2       28    22  47    4.6188   612.6    2.812      50.734
2015    2       28    22  52    4.6169   612.3    2.812      50.681
2015    2       28    22  57    4.6149   612.1    2.813      50.629
2015    2       28    23   3    4.6129   611.8    2.814      50.576
2015    2       28    23   8    4.6109   611.5    2.814      50.523
2015    2       28    23  13    4.6089   611.3    2.815      50.469
2015    2       28    23  18    4.6070   611.0    2.815      50.416
2015    2       28    23  23    4.6050   610.8    2.816      50.361
2015    2       28    23  29    4.6030   610.5    2.816      50.307
2015    2       28    23  34    4.6010   610.2    2.817      50.252
2015    2       28    23  39    4.5991   610.0    2.817      50.197
2015    2       28    23  44    4.5971   609.7    2.818      50.141
2015    2       28    23  48    4.5957   609.5    2.818      50.107
2015    2       28    23  52    4.5943   609.3    2.819      50.073
2015    2       28    23  55    4.5929   609.1    2.819      50.039
2015    2       28    23  59    4.5915   609.0    2.819      50.006
2015    3        1     0   2    4.5902   608.8    2.820      49.975
2015    3        1     0   6    4.5889   608.6    2.820      49.944
2015    3        1     0   9    4.5876   608.4    2.820      49.914
2015    3        1     0  12    4.5863   608.2    2.821      49.884
2015    3        1     0  16    4.5850   608.1    2.821      49.854
2015    3        1     0  19    4.5837   607.9    2.821      49.824
2015    3        1     0  23    4.5824   607.7    2.822      49.794
2015    3        1     0  26    4.5811   607.5    2.822      49.764
2015    3        1     0  29    4.5799   607.4    2.822      49.734
2015    3        1     0  33    4.5786   607.2    2.823      49.705
2015    3        1     0  36    4.5773   607.0    2.823      49.675
2015    3        1     0  39    4.5760   606.8    2.823      49.646
2015    3        1     0  43    4.5747   606.7    2.824      49.617
2015    3        1     0  46    4.5735   606.5    2.824      49.587
