year    month   day   hour  minute  B_enl V_enl   n_enl       T_enl
[year] [month] [day] [hour][minute] [nT]  [km/s]  [cm-3]      [kK]
2015    2       27     0   0    5.8863   679.2    3.107      70.816
2015    2       27     0   5    5.8829   679.2    3.104      70.786
2015    2       27     0  10    5.8796   679.3    3.101      70.755
2015    2       27     0  16    5.8764   679.3    3.099      70.725
2015    2       27     0  21    5.8731   679.3    3.096      70.694
2015    2       27     0  26    5.8699   679.3    3.093      70.663
2015    2       27     0  31    5.8668   679.3    3.090      70.632
2015    2       27     0  37    5.8634   679.3    3.088      70.601
2015    2       27     0  42    5.8602   679.3    3.085      70.570
2015    2       27     0  47    5.8570   679.3    3.082      70.538
2015    2       27     0  52    5.8538   679.3    3.080      70.506
2015    2       27     0  58    5.8506   679.4    3.077      70.475
2015    2       27     1   3    5.8474   679.4    3.075      70.443
2015    2       27     1   8    5.8442   679.4    3.072      70.411
2015    2       27     1  13    5.8410   679.4    3.069      70.379
2015    2       27     1  19    5.8378   679.4    3.067      70.348
2015    2       27     1  24    5.8346   679.4    3.064      70.316
2015    2       27     1  29    5.8315   679.4    3.062      70.284
2015    2       27     1  34    5.8283   679.4    3.060      70.253
2015    2       27     1  40    5.8251   679.4    3.057      70.221
2015    2       27     1  45    5.8219   679.4    3.055      70.190
2015    2       27     1  50    5.8188   679.4    3.053      70.158
2015    2       27     1  55    5.8156   679.4    3.050      70.127
2015    2       27     2   1    5.8124   679.4    3.048      70.096
2015    2       27     2   6    5.8092   679.4    3.046      70.065
2015    2       27     2  11    5.8062   679.4    3.044      70.034
2015    2       27     2  16    5.8029   679.3    3.042      70.004
2015    2       27     2  22    5.7997   679.3    3.040      69.974
2015    2       27     2  27    5.7967   679.3    3.038      69.944
2015    2       27     2  32    5.7934   679.3    3.036      69.914
2015    2       27     2  37    5.7902   679.3    3.034      69.884
2015    2       27     2  43    5.7871   679.3    3.032      69.855
2015    2       27     2  48    5.7838   679.3    3.030      69.826
2015    2       27     2  53    5.7806   679.3    3.029      69.797
2015    2       27     2  58    5.7775   679.3    3.027      69.769
2015    2       27     3   4    5.7743   679.3    3.025      69.740
2015    2       27     3   9    5.7712   679.2    3.023      69.713
2015    2       27     3  14    5.7680   679.2    3.022      69.685
2015    2       27     3  19    5.7649   679.2    3.020      69.657
2015    2       27     3  25    5.7617   679.2    3.019      69.630
2015    2       27     3  30    5.7586   679.2    3.017      69.603
2015    2       27     3  35    5.7554   679.2    3.015      69.576
2015    2       27     3  41    5.7523   679.1    3.014      69.550
2015    2       27     3  46    5.7492   679.1    3.012      69.523
2015    2       27     3  51    5.7461   679.1    3.011      69.497
2015    2       27     3  56    5.7430   679.1    3.010      69.471
2015    2       27     4   2    5.7400   679.0    3.008      69.445
2015    2       27     4   7    5.7369   679.0    3.007      69.418
2015    2       27     4  12    5.7339   679.0    3.005      69.392
2015    2       27     4  17    5.7308   679.0    3.004      69.366
2015    2       27     4  23    5.7278   679.0    3.002      69.340
2015    2       27     4  28    5.7248   678.9    3.001      69.314
2015    2       27     4  33    5.7218   678.9    2.999      69.287
2015    2       27     4  38    5.7188   678.9    2.998      69.260
2015    2       27     4  44    5.7158   678.8    2.996      69.233
2015    2       27     4  49    5.7129   678.8    2.995      69.206
2015    2       27     4  54    5.7100   678.8    2.993      69.179
2015    2       27     4  59    5.7070   678.8    2.991      69.151
2015    2       27     5   5    5.7041   678.7    2.990      69.123
2015    2       27     5  10    5.7012   678.7    2.988      69.095
2015    2       27     5  15    5.6984   678.7    2.986      69.066
2015    2       27     5  20    5.6955   678.6    2.985      69.038
2015    2       27     5  26    5.6926   678.6    2.983      69.008
2015    2       27     5  31    5.6898   678.6    2.981      68.979
2015    2       27     5  36    5.6870   678.5    2.979      68.949
2015    2       27     5  41    5.6841   678.5    2.978      68.919
2015    2       27     5  47    5.6814   678.4    2.976      68.888
2015    2       27     5  52    5.6786   678.4    2.974      68.858
2015    2       27     5  57    5.6758   678.4    2.972      68.826
2015    2       27     6   2    5.6730   678.3    2.970      68.795
2015    2       27     6   8    5.6704   678.3    2.968      68.763
2015    2       27     6  13    5.6675   678.2    2.966      68.732
2015    2       27     6  18    5.6648   678.2    2.964      68.700
2015    2       27     6  24    5.6621   678.2    2.962      68.667
2015    2       27     6  29    5.6594   678.1    2.960      68.635
2015    2       27     6  34    5.6567   678.1    2.958      68.602
2015    2       27     6  39    5.6540   678.0    2.957      68.569
2015    2       27     6  45    5.6515   678.0    2.955      68.537
2015    2       27     6  50    5.6487   677.9    2.953      68.504
2015    2       27     6  55    5.6461   677.9    2.951      68.471
2015    2       27     7   0    5.6434   677.8    2.949      68.437
2015    2       27     7   6    5.6408   677.8    2.947      68.404
2015    2       27     7  11    5.6382   677.7    2.945      68.371
2015    2       27     7  16    5.6356   677.7    2.943      68.338
2015    2       27     7  21    5.6330   677.7    2.941      68.304
2015    2       27     7  26    5.6305   677.6    2.939      68.271
2015    2       27     7  32    5.6278   677.6    2.937      68.237
2015    2       27     7  37    5.6252   677.5    2.936      68.204
2015    2       27     7  42    5.6226   677.5    2.934      68.170
2015    2       27     7  47    5.6200   677.4    2.932      68.136
2015    2       27     7  53    5.6175   677.4    2.930      68.102
2015    2       27     7  58    5.6149   677.3    2.928      68.068
2015    2       27     8   3    5.6123   677.3    2.927      68.034
2015    2       27     8   8    5.6098   677.2    2.925      68.000
2015    2       27     8  14    5.6072   677.2    2.923      67.966
2015    2       27     8  19    5.6047   677.1    2.922      67.932
2015    2       27     8  24    5.6021   677.1    2.920      67.898
2015    2       27     8  29    5.5995   677.0    2.919      67.864
2015    2       27     8  35    5.5969   677.0    2.917      67.829
2015    2       27     8  40    5.5944   676.9    2.915      67.795
2015    2       27     8  45    5.5918   676.9    2.914      67.761
2015    2       27     8  50    5.5892   676.8    2.912      67.727
2015    2       27     8  56    5.5866   676.8    2.911      67.692
2015    2       27     9   1    5.5841   676.7    2.909      67.658
2015    2       27     9   6    5.5815   676.7    2.908      67.624
2015    2       27     9  12    5.5789   676.6    2.907      67.590
2015    2       27     9  17    5.5763   676.5    2.905      67.556
2015    2       27     9  22    5.5737   676.5    2.904      67.523
2015    2       27     9  27    5.5711   676.4    2.903      67.489
2015    2       27     9  33    5.5686   676.4    2.901      67.456
2015    2       27     9  38    5.5660   676.3    2.900      67.423
2015    2       27     9  43    5.5634   676.3    2.899      67.390
2015    2       27     9  48    5.5608   676.2    2.898      67.357
2015    2       27     9  54    5.5582   676.1    2.897      67.325
2015    2       27     9  59    5.5556   676.1    2.895      67.293
2015    2       27    10   4    5.5530   676.0    2.894      67.261
2015    2       27    10   9    5.5504   676.0    2.893      67.229
2015    2       27    10  15    5.5478   675.9    2.892      67.198
2015    2       27    10  20    5.5452   675.8    2.891      67.167
2015    2       27    10  25    5.5427   675.8    2.890      67.136
2015    2       27    10  30    5.5401   675.7    2.889      67.106
2015    2       27    10  36    5.5375   675.6    2.888      67.076
2015    2       27    10  41    5.5349   675.6    2.887      67.046
2015    2       27    10  46    5.5324   675.5    2.886      67.017
2015    2       27    10  51    5.5298   675.4    2.885      66.988
2015    2       27    10  57    5.5273   675.4    2.884      66.959
2015    2       27    11   2    5.5248   675.3    2.884      66.930
2015    2       27    11   7    5.5222   675.2    2.883      66.901
2015    2       27    11  12    5.5197   675.2    2.882      66.873
2015    2       27    11  18    5.5172   675.1    2.881      66.845
2015    2       27    11  23    5.5147   675.0    2.880      66.817
2015    2       27    11  28    5.5123   675.0    2.879      66.789
2015    2       27    11  34    5.5098   674.9    2.879      66.761
2015    2       27    11  39    5.5073   674.8    2.878      66.733
2015    2       27    11  44    5.5049   674.7    2.877      66.706
2015    2       27    11  49    5.5025   674.7    2.876      66.678
2015    2       27    11  55    5.5001   674.6    2.875      66.650
2015    2       27    12   0    5.4977   674.5    2.875      66.622
2015    2       27    12   5    5.4953   674.4    2.874      66.594
2015    2       27    12  10    5.4929   674.4    2.873      66.566
2015    2       27    12  16    5.4905   674.3    2.872      66.538
2015    2       27    12  21    5.4882   674.2    2.871      66.509
2015    2       27    12  26    5.4858   674.1    2.870      66.480
2015    2       27    12  31    5.4835   674.0    2.870      66.451
2015    2       27    12  37    5.4812   674.0    2.869      66.422
2015    2       27    12  42    5.4789   673.9    2.868      66.392
2015    2       27    12  47    5.4766   673.8    2.867      66.362
2015    2       27    12  52    5.4743   673.7    2.866      66.332
2015    2       27    12  58    5.4720   673.6    2.865      66.301
2015    2       27    13   3    5.4698   673.6    2.864      66.270
2015    2       27    13   8    5.4675   673.5    2.863      66.239
2015    2       27    13  13    5.4653   673.4    2.862      66.207
2015    2       27    13  19    5.4630   673.3    2.861      66.175
2015    2       27    13  24    5.4608   673.2    2.860      66.143
2015    2       27    13  29    5.4586   673.1    2.859      66.111
2015    2       27    13  34    5.4564   673.0    2.858      66.078
2015    2       27    13  40    5.4542   672.9    2.857      66.045
2015    2       27    13  45    5.4521   672.9    2.856      66.011
2015    2       27    13  50    5.4498   672.8    2.855      65.978
2015    2       27    13  55    5.4477   672.7    2.854      65.944
2015    2       27    14   1    5.4455   672.6    2.853      65.910
2015    2       27    14   6    5.4433   672.5    2.852      65.876
2015    2       27    14  11    5.4412   672.4    2.851      65.841
2015    2       27    14  16    5.4391   672.3    2.850      65.807
2015    2       27    14  22    5.4369   672.2    2.849      65.772
2015    2       27    14  27    5.4349   672.1    2.848      65.737
2015    2       27    14  32    5.4328   672.0    2.847      65.702
2015    2       27    14  37    5.4306   671.9    2.846      65.668
2015    2       27    14  43    5.4284   671.9    2.845      65.632
2015    2       27    14  48    5.4263   671.8    2.844      65.597
2015    2       27    14  53    5.4242   671.7    2.842      65.562
2015    2       27    14  58    5.4221   671.6    2.841      65.527
2015    2       27    15   4    5.4200   671.5    2.840      65.492
2015    2       27    15   9    5.4179   671.4    2.839      65.456
2015    2       27    15  14    5.4159   671.3    2.838      65.421
2015    2       27    15  19    5.4137   671.2    2.837      65.385
2015    2       27    15  25    5.4116   671.1    2.836      65.350
2015    2       27    15  30    5.4095   671.0    2.835      65.314
2015    2       27    15  35    5.4074   670.9    2.834      65.278
2015    2       27    15  40    5.4054   670.9    2.833      65.242
2015    2       27    15  46    5.4032   670.8    2.832      65.206
2015    2       27    15  51    5.4011   670.7    2.831      65.170
2015    2       27    15  56    5.3990   670.6    2.829      65.134
2015    2       27    16   1    5.3969   670.5    2.828      65.098
2015    2       27    16   7    5.3948   670.4    2.827      65.062
2015    2       27    16  12    5.3926   670.3    2.826      65.026
2015    2       27    16  17    5.3905   670.2    2.825      64.989
2015    2       27    16  22    5.3884   670.1    2.824      64.953
2015    2       27    16  28    5.3863   670.0    2.823      64.916
2015    2       27    16  33    5.3841   669.9    2.822      64.880
2015    2       27    16  38    5.3820   669.8    2.821      64.843
2015    2       27    16  43    5.3799   669.7    2.820      64.807
2015    2       27    16  49    5.3778   669.6    2.819      64.770
2015    2       27    16  54    5.3757   669.5    2.818      64.734
2015    2       27    16  59    5.3735   669.4    2.817      64.698
2015    2       27    17   4    5.3714   669.3    2.816      64.662
2015    2       27    17  10    5.3693   669.2    2.815      64.626
2015    2       27    17  15    5.3672   669.1    2.815      64.591
2015    2       27    17  20    5.3651   669.0    2.814      64.555
2015    2       27    17  26    5.3630   668.9    2.813      64.520
2015    2       27    17  31    5.3610   668.8    2.812      64.485
2015    2       27    17  36    5.3589   668.7    2.812      64.450
2015    2       27    17  41    5.3568   668.6    2.811      64.416
2015    2       27    17  47    5.3548   668.5    2.810      64.382
2015    2       27    17  52    5.3527   668.4    2.809      64.348
2015    2       27    17  57    5.3507   668.3    2.809      64.315
2015    2       27    18   2    5.3486   668.2    2.808      64.282
2015    2       27    18   8    5.3466   668.1    2.808      64.249
2015    2       27    18  13    5.3446   668.0    2.807      64.216
2015    2       27    18  18    5.3426   667.9    2.807      64.184
2015    2       27    18  23    5.3406   667.8    2.806      64.152
2015    2       27    18  29    5.3386   667.7    2.806      64.120
2015    2       27    18  34    5.3366   667.6    2.805      64.089
2015    2       27    18  39    5.3346   667.5    2.805      64.058
2015    2       27    18  44    5.3326   667.4    2.805      64.027
2015    2       27    18  50    5.3306   667.3    2.804      63.996
2015    2       27    18  55    5.3287   667.2    2.804      63.965
2015    2       27    19   0    5.3267   667.1    2.804      63.935
2015    2       27    19   5    5.3247   667.0    2.803      63.904
2015    2       27    19  11    5.3228   666.9    2.803      63.874
2015    2       27    19  16    5.3208   666.8    2.803      63.844
2015    2       27    19  21    5.3188   666.7    2.803      63.815
2015    2       27    19  27    5.3168   666.6    2.802      63.785
2015    2       27    19  32    5.3149   666.5    2.802      63.755
2015    2       27    19  37    5.3129   666.3    2.802      63.725
2015    2       27    19  42    5.3109   666.2    2.802      63.696
2015    2       27    19  48    5.3090   666.1    2.801      63.666
2015    2       27    19  53    5.3070   666.0    2.801      63.637
2015    2       27    19  58    5.3050   665.9    2.801      63.608
2015    2       27    20   3    5.3031   665.8    2.801      63.578
2015    2       27    20   9    5.3011   665.7    2.801      63.549
2015    2       27    20  14    5.2992   665.6    2.800      63.520
2015    2       27    20  19    5.2972   665.5    2.800      63.490
2015    2       27    20  24    5.2952   665.3    2.800      63.461
2015    2       27    20  30    5.2933   665.2    2.800      63.432
2015    2       27    20  35    5.2913   665.1    2.800      63.403
2015    2       27    20  40    5.2893   665.0    2.799      63.373
2015    2       27    20  45    5.2874   664.9    2.799      63.344
2015    2       27    20  51    5.2854   664.8    2.799      63.314
2015    2       27    20  56    5.2835   664.7    2.799      63.285
2015    2       27    21   1    5.2815   664.5    2.799      63.255
2015    2       27    21   6    5.2796   664.4    2.799      63.226
2015    2       27    21  12    5.2776   664.3    2.798      63.196
2015    2       27    21  17    5.2757   664.2    2.798      63.166
2015    2       27    21  22    5.2737   664.1    2.798      63.136
2015    2       27    21  27    5.2718   663.9    2.798      63.107
2015    2       27    21  33    5.2699   663.8    2.798      63.077
2015    2       27    21  38    5.2679   663.7    2.798      63.047
2015    2       27    21  43    5.2660   663.6    2.797      63.016
2015    2       27    21  48    5.2641   663.5    2.797      62.986
2015    2       27    21  54    5.2622   663.3    2.797      62.956
2015    2       27    21  59    5.2602   663.2    2.797      62.926
2015    2       27    22   4    5.2583   663.1    2.797      62.895
2015    2       27    22   9    5.2564   663.0    2.797      62.865
2015    2       27    22  15    5.2545   662.9    2.796      62.834
2015    2       27    22  20    5.2526   662.7    2.796      62.804
2015    2       27    22  25    5.2507   662.6    2.796      62.773
2015    2       27    22  30    5.2487   662.5    2.796      62.742
2015    2       27    22  36    5.2468   662.4    2.796      62.711
2015    2       27    22  41    5.2449   662.3    2.796      62.680
2015    2       27    22  46    5.2430   662.1    2.795      62.649
2015    2       27    22  51    5.2411   662.0    2.795      62.618
2015    2       27    22  57    5.2392   661.9    2.795      62.586
2015    2       27    23   2    5.2373   661.8    2.795      62.554
2015    2       27    23   7    5.2354   661.7    2.794      62.522
2015    2       27    23  12    5.2335   661.5    2.794      62.490
2015    2       27    23  18    5.2316   661.4    2.794      62.457
2015    2       27    23  23    5.2297   661.3    2.794      62.425
2015    2       27    23  28    5.2278   661.2    2.793      62.391
2015    2       27    23  33    5.2259   661.1    2.793      62.358
2015    2       27    23  39    5.2240   660.9    2.793      62.324
2015    2       27    23  44    5.2221   660.8    2.792      62.290
2015    2       27    23  49    5.2202   660.7    2.792      62.255
2015    2       27    23  54    5.2183   660.6    2.791      62.220
2015    2       28     0   0    5.2164   660.4    2.791      62.185
2015    2       28     0   5    5.2145   660.3    2.790      62.149
2015    2       28     0  10    5.2126   660.2    2.790      62.113
2015    2       28     0  15    5.2107   660.1    2.790      62.077
2015    2       28     0  21    5.2088   659.9    2.789      62.041
2015    2       28     0  26    5.2070   659.8    2.789      62.004
2015    2       28     0  31    5.2051   659.7    2.788      61.966
2015    2       28     0  36    5.2032   659.5    2.788      61.929
2015    2       28     0  42    5.2014   659.4    2.787      61.891
2015    2       28     0  47    5.1995   659.3    2.787      61.853
2015    2       28     0  52    5.1977   659.2    2.786      61.815
2015    2       28     0  57    5.1959   659.0    2.785      61.776
2015    2       28     1   3    5.1940   658.9    2.785      61.737
2015    2       28     1   8    5.1922   658.8    2.784      61.699
2015    2       28     1  13    5.1904   658.6    2.784      61.660
2015    2       28     1  19    5.1886   658.5    2.783      61.620
2015    2       28     1  24    5.1868   658.4    2.783      61.581
2015    2       28     1  29    5.1850   658.2    2.782      61.541
