year    month   day   hour  minute  B_enl V_enl   n_enl       T_enl
[year] [month] [day] [hour][minute] [nT]  [km/s]  [cm-3]      [kK]
2015    5        1     0   1    5.0577   474.2    6.052      46.497
2015    5        1     0   7    5.0558   474.3    6.047      46.501
2015    5        1     0  13    5.0538   474.4    6.043      46.506
2015    5        1     0  19    5.0519   474.5    6.039      46.510
2015    5        1     0  25    5.0500   474.6    6.034      46.514
2015    5        1     0  31    5.0481   474.7    6.030      46.518
2015    5        1     0  37    5.0461   474.8    6.026      46.521
2015    5        1     0  42    5.0442   474.9    6.021      46.525
2015    5        1     0  48    5.0422   475.0    6.017      46.529
2015    5        1     0  54    5.0402   475.1    6.013      46.533
2015    5        1     1   0    5.0383   475.2    6.008      46.537
2015    5        1     1   6    5.0363   475.3    6.004      46.540
2015    5        1     1  12    5.0343   475.4    6.000      46.544
2015    5        1     1  18    5.0323   475.5    5.995      46.548
2015    5        1     1  24    5.0303   475.6    5.991      46.551
2015    5        1     1  30    5.0283   475.7    5.987      46.554
2015    5        1     1  36    5.0263   475.8    5.982      46.557
2015    5        1     1  42    5.0243   475.9    5.978      46.560
2015    5        1     1  48    5.0223   476.0    5.974      46.562
2015    5        1     1  54    5.0202   476.1    5.969      46.565
2015    5        1     2   0    5.0182   476.2    5.965      46.567
2015    5        1     2   6    5.0161   476.3    5.960      46.570
2015    5        1     2  12    5.0141   476.3    5.956      46.572
2015    5        1     2  18    5.0120   476.4    5.952      46.574
2015    5        1     2  24    5.0100   476.5    5.947      46.575
2015    5        1     2  30    5.0079   476.6    5.943      46.577
2015    5        1     2  36    5.0058   476.7    5.939      46.579
2015    5        1     2  42    5.0038   476.8    5.934      46.580
2015    5        1     2  48    5.0017   476.9    5.930      46.582
2015    5        1     2  54    4.9996   477.0    5.926      46.583
2015    5        1     3   0    4.9975   477.1    5.921      46.584
2015    5        1     3   6    4.9953   477.2    5.917      46.585
2015    5        1     3  12    4.9932   477.3    5.913      46.586
2015    5        1     3  18    4.9911   477.4    5.909      46.587
2015    5        1     3  24    4.9889   477.4    5.904      46.588
2015    5        1     3  30    4.9868   477.5    5.900      46.589
2015    5        1     3  35    4.9846   477.6    5.896      46.590
2015    5        1     3  41    4.9825   477.7    5.891      46.591
2015    5        1     3  47    4.9803   477.8    5.887      46.591
2015    5        1     3  53    4.9781   477.9    5.883      46.592
2015    5        1     3  59    4.9759   478.0    5.879      46.593
2015    5        1     4   5    4.9737   478.1    5.874      46.593
2015    5        1     4  11    4.9715   478.2    5.870      46.594
2015    5        1     4  17    4.9693   478.2    5.866      46.595
2015    5        1     4  23    4.9671   478.3    5.861      46.595
2015    5        1     4  29    4.9649   478.4    5.857      46.596
2015    5        1     4  35    4.9626   478.5    5.853      46.596
2015    5        1     4  41    4.9604   478.6    5.848      46.597
2015    5        1     4  47    4.9581   478.7    5.844      46.597
2015    5        1     4  53    4.9559   478.8    5.840      46.598
2015    5        1     4  59    4.9536   478.9    5.836      46.599
2015    5        1     5   5    4.9513   478.9    5.831      46.599
2015    5        1     5  11    4.9490   479.0    5.827      46.600
2015    5        1     5  17    4.9467   479.1    5.823      46.600
2015    5        1     5  23    4.9444   479.2    5.818      46.600
2015    5        1     5  29    4.9421   479.3    5.814      46.601
2015    5        1     5  35    4.9398   479.4    5.810      46.601
2015    5        1     5  41    4.9375   479.4    5.805      46.601
2015    5        1     5  47    4.9351   479.5    5.801      46.601
2015    5        1     5  53    4.9328   479.6    5.796      46.601
2015    5        1     5  59    4.9304   479.7    5.792      46.601
2015    5        1     6   5    4.9280   479.8    5.788      46.601
2015    5        1     6  11    4.9257   479.9    5.783      46.600
2015    5        1     6  17    4.9233   479.9    5.779      46.600
2015    5        1     6  23    4.9209   480.0    5.774      46.599
2015    5        1     6  28    4.9185   480.1    5.770      46.598
2015    5        1     6  34    4.9161   480.2    5.765      46.597
2015    5        1     6  40    4.9137   480.3    5.761      46.596
2015    5        1     6  46    4.9113   480.3    5.756      46.594
2015    5        1     6  52    4.9089   480.4    5.752      46.592
2015    5        1     6  58    4.9065   480.5    5.747      46.591
2015    5        1     7   4    4.9041   480.6    5.743      46.589
2015    5        1     7  10    4.9016   480.6    5.738      46.586
2015    5        1     7  16    4.8992   480.7    5.733      46.584
2015    5        1     7  22    4.8968   480.8    5.729      46.581
2015    5        1     7  28    4.8944   480.9    5.724      46.579
2015    5        1     7  34    4.8919   480.9    5.720      46.576
2015    5        1     7  40    4.8895   481.0    5.715      46.573
2015    5        1     7  46    4.8871   481.1    5.711      46.569
2015    5        1     7  52    4.8847   481.2    5.706      46.566
2015    5        1     7  58    4.8822   481.2    5.702      46.562
2015    5        1     8   4    4.8798   481.3    5.697      46.559
2015    5        1     8  10    4.8774   481.4    5.693      46.555
2015    5        1     8  16    4.8750   481.5    5.689      46.551
2015    5        1     8  22    4.8726   481.5    5.684      46.547
2015    5        1     8  28    4.8701   481.6    5.680      46.543
2015    5        1     8  34    4.8677   481.7    5.676      46.539
2015    5        1     8  40    4.8653   481.7    5.671      46.534
2015    5        1     8  46    4.8629   481.8    5.667      46.530
2015    5        1     8  52    4.8606   481.9    5.663      46.526
2015    5        1     8  58    4.8582   481.9    5.659      46.521
2015    5        1     9   4    4.8558   482.0    5.655      46.517
2015    5        1     9  10    4.8534   482.1    5.651      46.512
2015    5        1     9  15    4.8510   482.2    5.647      46.508
2015    5        1     9  21    4.8487   482.2    5.643      46.503
2015    5        1     9  27    4.8463   482.3    5.639      46.499
2015    5        1     9  33    4.8439   482.4    5.635      46.494
2015    5        1     9  39    4.8416   482.4    5.631      46.489
2015    5        1     9  45    4.8392   482.5    5.627      46.485
2015    5        1     9  51    4.8369   482.6    5.623      46.480
2015    5        1     9  57    4.8345   482.6    5.619      46.476
2015    5        1    10   3    4.8322   482.7    5.616      46.471
2015    5        1    10   9    4.8298   482.8    5.612      46.467
2015    5        1    10  15    4.8274   482.8    5.608      46.462
2015    5        1    10  21    4.8251   482.9    5.605      46.458
2015    5        1    10  27    4.8227   482.9    5.601      46.453
2015    5        1    10  33    4.8203   483.0    5.597      46.449
2015    5        1    10  39    4.8179   483.1    5.594      46.444
2015    5        1    10  45    4.8156   483.1    5.590      46.440
2015    5        1    10  51    4.8132   483.2    5.586      46.435
2015    5        1    10  57    4.8108   483.3    5.583      46.431
2015    5        1    11   3    4.8084   483.3    5.579      46.426
2015    5        1    11   9    4.8060   483.4    5.576      46.422
2015    5        1    11  15    4.8036   483.4    5.572      46.417
2015    5        1    11  21    4.8012   483.5    5.568      46.412
2015    5        1    11  27    4.7988   483.6    5.565      46.408
2015    5        1    11  33    4.7964   483.6    5.561      46.403
2015    5        1    11  39    4.7939   483.7    5.558      46.399
2015    5        1    11  45    4.7915   483.7    5.554      46.394
2015    5        1    11  51    4.7891   483.8    5.550      46.389
2015    5        1    11  57    4.7867   483.8    5.547      46.385
2015    5        1    12   3    4.7842   483.9    5.543      46.380
2015    5        1    12   8    4.7818   484.0    5.540      46.376
2015    5        1    12  14    4.7794   484.0    5.536      46.371
2015    5        1    12  20    4.7769   484.1    5.532      46.367
2015    5        1    12  26    4.7745   484.1    5.529      46.362
2015    5        1    12  32    4.7721   484.2    5.525      46.357
2015    5        1    12  38    4.7696   484.2    5.521      46.352
2015    5        1    12  44    4.7672   484.3    5.518      46.347
2015    5        1    12  50    4.7647   484.3    5.514      46.342
2015    5        1    12  56    4.7623   484.4    5.510      46.336
2015    5        1    13   2    4.7598   484.5    5.506      46.331
2015    5        1    13   8    4.7574   484.5    5.503      46.325
2015    5        1    13  14    4.7549   484.6    5.499      46.319
2015    5        1    13  20    4.7525   484.6    5.495      46.313
2015    5        1    13  26    4.7500   484.7    5.491      46.307
2015    5        1    13  32    4.7476   484.7    5.487      46.301
2015    5        1    13  38    4.7451   484.8    5.484      46.294
2015    5        1    13  44    4.7427   484.8    5.480      46.288
2015    5        1    13  50    4.7402   484.9    5.476      46.281
2015    5        1    13  56    4.7377   484.9    5.472      46.275
2015    5        1    14   2    4.7353   485.0    5.468      46.268
2015    5        1    14   8    4.7328   485.0    5.464      46.261
2015    5        1    14  14    4.7303   485.1    5.460      46.254
2015    5        1    14  20    4.7278   485.1    5.456      46.247
2015    5        1    14  26    4.7254   485.2    5.452      46.240
2015    5        1    14  32    4.7229   485.2    5.449      46.232
2015    5        1    14  38    4.7204   485.3    5.445      46.225
2015    5        1    14  44    4.7180   485.3    5.441      46.218
2015    5        1    14  50    4.7155   485.4    5.437      46.210
2015    5        1    14  55    4.7130   485.4    5.433      46.202
2015    5        1    15   1    4.7106   485.5    5.429      46.195
2015    5        1    15   7    4.7081   485.5    5.425      46.187
2015    5        1    15  13    4.7057   485.5    5.421      46.179
2015    5        1    15  19    4.7032   485.6    5.417      46.171
2015    5        1    15  25    4.7008   485.6    5.413      46.163
2015    5        1    15  31    4.6983   485.7    5.409      46.155
2015    5        1    15  37    4.6959   485.7    5.405      46.146
2015    5        1    15  43    4.6935   485.8    5.401      46.138
2015    5        1    15  49    4.6911   485.8    5.398      46.129
2015    5        1    15  55    4.6887   485.9    5.394      46.121
2015    5        1    16   1    4.6863   485.9    5.390      46.112
2015    5        1    16   7    4.6839   485.9    5.386      46.103
2015    5        1    16  13    4.6815   486.0    5.382      46.094
2015    5        1    16  19    4.6791   486.0    5.379      46.085
2015    5        1    16  25    4.6767   486.1    5.375      46.076
2015    5        1    16  31    4.6743   486.1    5.371      46.067
2015    5        1    16  37    4.6720   486.2    5.368      46.058
2015    5        1    16  43    4.6696   486.2    5.364      46.049
2015    5        1    16  49    4.6673   486.2    5.361      46.039
2015    5        1    16  55    4.6649   486.3    5.357      46.030
2015    5        1    17   1    4.6626   486.3    5.353      46.021
2015    5        1    17   7    4.6602   486.4    5.350      46.011
2015    5        1    17  13    4.6579   486.4    5.347      46.001
2015    5        1    17  19    4.6556   486.4    5.343      45.992
2015    5        1    17  25    4.6532   486.5    5.340      45.982
2015    5        1    17  31    4.6509   486.5    5.336      45.972
2015    5        1    17  37    4.6486   486.6    5.333      45.962
2015    5        1    17  43    4.6462   486.6    5.330      45.952
2015    5        1    17  48    4.6439   486.6    5.326      45.941
2015    5        1    17  54    4.6416   486.7    5.323      45.931
2015    5        1    18   0    4.6392   486.7    5.320      45.921
2015    5        1    18   6    4.6369   486.7    5.317      45.910
2015    5        1    18  12    4.6345   486.8    5.314      45.899
2015    5        1    18  18    4.6322   486.8    5.311      45.889
2015    5        1    18  24    4.6298   486.8    5.307      45.878
2015    5        1    18  30    4.6275   486.9    5.304      45.867
2015    5        1    18  36    4.6251   486.9    5.301      45.856
2015    5        1    18  42    4.6227   486.9    5.298      45.845
2015    5        1    18  48    4.6204   487.0    5.295      45.834
2015    5        1    18  54    4.6180   487.0    5.292      45.823
2015    5        1    19   0    4.6156   487.0    5.289      45.812
2015    5        1    19   6    4.6133   487.1    5.286      45.801
2015    5        1    19  12    4.6109   487.1    5.283      45.790
2015    5        1    19  18    4.6085   487.1    5.280      45.779
2015    5        1    19  24    4.6061   487.2    5.277      45.768
2015    5        1    19  30    4.6038   487.2    5.275      45.757
2015    5        1    19  36    4.6014   487.2    5.272      45.746
2015    5        1    19  42    4.5990   487.3    5.269      45.735
2015    5        1    19  48    4.5966   487.3    5.266      45.724
2015    5        1    19  54    4.5942   487.3    5.263      45.713
2015    5        1    20   0    4.5918   487.3    5.260      45.703
2015    5        1    20   6    4.5895   487.4    5.257      45.692
2015    5        1    20  12    4.5871   487.4    5.255      45.682
2015    5        1    20  18    4.5847   487.4    5.252      45.671
2015    5        1    20  24    4.5823   487.4    5.249      45.661
2015    5        1    20  30    4.5799   487.5    5.246      45.651
2015    5        1    20  35    4.5775   487.5    5.243      45.640
2015    5        1    20  41    4.5751   487.5    5.240      45.630
2015    5        1    20  47    4.5727   487.5    5.238      45.620
2015    5        1    20  53    4.5703   487.6    5.235      45.610
2015    5        1    20  59    4.5679   487.6    5.232      45.601
2015    5        1    21   5    4.5655   487.6    5.229      45.591
2015    5        1    21  11    4.5631   487.6    5.226      45.582
2015    5        1    21  17    4.5607   487.7    5.223      45.572
2015    5        1    21  23    4.5583   487.7    5.220      45.563
2015    5        1    21  29    4.5559   487.7    5.217      45.553
2015    5        1    21  35    4.5535   487.7    5.214      45.544
2015    5        1    21  41    4.5512   487.8    5.211      45.535
2015    5        1    21  47    4.5488   487.8    5.208      45.526
2015    5        1    21  53    4.5464   487.8    5.205      45.517
2015    5        1    21  59    4.5440   487.8    5.202      45.508
2015    5        1    22   5    4.5417   487.8    5.199      45.499
2015    5        1    22  11    4.5393   487.9    5.196      45.489
2015    5        1    22  17    4.5370   487.9    5.192      45.480
2015    5        1    22  23    4.5346   487.9    5.189      45.471
2015    5        1    22  29    4.5323   487.9    5.186      45.462
2015    5        1    22  35    4.5300   487.9    5.183      45.452
2015    5        1    22  41    4.5277   488.0    5.180      45.443
2015    5        1    22  47    4.5254   488.0    5.177      45.433
2015    5        1    22  53    4.5231   488.0    5.173      45.424
2015    5        1    22  59    4.5208   488.0    5.170      45.414
2015    5        1    23   5    4.5185   488.0    5.167      45.404
2015    5        1    23  11    4.5163   488.0    5.164      45.393
2015    5        1    23  17    4.5140   488.1    5.160      45.383
2015    5        1    23  23    4.5118   488.1    5.157      45.372
2015    5        1    23  28    4.5096   488.1    5.154      45.361
2015    5        1    23  34    4.5074   488.1    5.151      45.350
2015    5        1    23  40    4.5052   488.1    5.147      45.338
2015    5        1    23  46    4.5030   488.1    5.144      45.327
2015    5        1    23  52    4.5008   488.2    5.141      45.315
2015    5        1    23  58    4.4986   488.2    5.138      45.302
2015    5        2     0   4    4.4964   488.2    5.135      45.290
2015    5        2     0  10    4.4943   488.2    5.131      45.277
2015    5        2     0  16    4.4921   488.2    5.128      45.263
2015    5        2     0  22    4.4900   488.2    5.125      45.250
2015    5        2     0  28    4.4878   488.2    5.122      45.236
2015    5        2     0  34    4.4857   488.2    5.119      45.222
2015    5        2     0  40    4.4835   488.3    5.116      45.207
2015    5        2     0  46    4.4813   488.3    5.113      45.192
2015    5        2     0  52    4.4792   488.3    5.110      45.177
2015    5        2     0  58    4.4770   488.3    5.107      45.162
2015    5        2     1   4    4.4749   488.3    5.104      45.147
2015    5        2     1  10    4.4727   488.3    5.101      45.131
2015    5        2     1  16    4.4705   488.3    5.098      45.115
2015    5        2     1  22    4.4683   488.3    5.095      45.098
2015    5        2     1  28    4.4662   488.3    5.093      45.082
2015    5        2     1  34    4.4640   488.4    5.090      45.065
2015    5        2     1  40    4.4618   488.4    5.087      45.048
2015    5        2     1  46    4.4596   488.4    5.084      45.031
2015    5        2     1  52    4.4574   488.4    5.082      45.014
2015    5        2     1  58    4.4552   488.4    5.079      44.997
2015    5        2     2   4    4.4530   488.4    5.077      44.980
2015    5        2     2  10    4.4508   488.4    5.074      44.962
2015    5        2     2  15    4.4486   488.4    5.071      44.945
2015    5        2     2  21    4.4464   488.4    5.069      44.928
2015    5        2     2  27    4.4441   488.4    5.066      44.910
2015    5        2     2  33    4.4419   488.4    5.064      44.893
2015    5        2     2  39    4.4397   488.4    5.062      44.875
2015    5        2     2  45    4.4374   488.4    5.059      44.858
2015    5        2     2  51    4.4352   488.4    5.057      44.841
2015    5        2     2  57    4.4330   488.4    5.054      44.824
2015    5        2     3   3    4.4307   488.4    5.052      44.807
2015    5        2     3   9    4.4285   488.4    5.050      44.790
2015    5        2     3  15    4.4262   488.4    5.047      44.773
2015    5        2     3  21    4.4240   488.4    5.045      44.757
2015    5        2     3  27    4.4217   488.4    5.043      44.740
2015    5        2     3  33    4.4195   488.5    5.040      44.724
2015    5        2     3  39    4.4172   488.5    5.038      44.708
2015    5        2     3  45    4.4150   488.5    5.036      44.692
2015    5        2     3  51    4.4127   488.5    5.034      44.677
2015    5        2     3  57    4.4104   488.4    5.031      44.661
2015    5        2     4   3    4.4082   488.4    5.029      44.646
2015    5        2     4   9    4.4059   488.4    5.027      44.631
2015    5        2     4  15    4.4036   488.4    5.024      44.616
2015    5        2     4  21    4.4014   488.4    5.022      44.601
2015    5        2     4  27    4.3991   488.4    5.020      44.586
2015    5        2     4  33    4.3969   488.4    5.017      44.572
2015    5        2     4  39    4.3946   488.4    5.015      44.558
2015    5        2     4  45    4.3924   488.4    5.013      44.544
2015    5        2     4  51    4.3902   488.4    5.010      44.530
2015    5        2     4  57    4.3879   488.4    5.008      44.516
