year    month   day   hour  minute  B_enl V_enl   n_enl       T_enl
[year] [month] [day] [hour][minute] [nT]  [km/s]  [cm-3]      [kK]
2015    4       27     0   2    4.9385   374.7    8.754      33.571
2015    4       27     0   8    4.9393   374.8    8.754      33.570
2015    4       27     0  14    4.9402   374.8    8.754      33.570
2015    4       27     0  19    4.9410   374.8    8.754      33.569
2015    4       27     0  25    4.9419   374.8    8.754      33.569
2015    4       27     0  31    4.9428   374.8    8.754      33.569
2015    4       27     0  37    4.9436   374.9    8.754      33.568
2015    4       27     0  43    4.9445   374.9    8.755      33.568
2015    4       27     0  49    4.9454   374.9    8.755      33.567
2015    4       27     0  54    4.9463   374.9    8.755      33.566
2015    4       27     1   0    4.9471   374.9    8.755      33.566
2015    4       27     1   6    4.9480   375.0    8.755      33.565
2015    4       27     1  12    4.9489   375.0    8.756      33.565
2015    4       27     1  18    4.9498   375.0    8.756      33.564
2015    4       27     1  24    4.9507   375.0    8.756      33.563
2015    4       27     1  29    4.9516   375.1    8.756      33.563
2015    4       27     1  35    4.9525   375.1    8.757      33.562
2015    4       27     1  41    4.9534   375.1    8.757      33.562
2015    4       27     1  47    4.9543   375.1    8.757      33.561
2015    4       27     1  53    4.9552   375.1    8.758      33.560
2015    4       27     1  59    4.9561   375.2    8.758      33.560
2015    4       27     2   4    4.9570   375.2    8.759      33.559
2015    4       27     2  10    4.9580   375.2    8.759      33.559
2015    4       27     2  16    4.9589   375.2    8.760      33.558
2015    4       27     2  22    4.9599   375.2    8.760      33.558
2015    4       27     2  28    4.9608   375.3    8.761      33.558
2015    4       27     2  34    4.9618   375.3    8.761      33.557
2015    4       27     2  39    4.9628   375.3    8.762      33.557
2015    4       27     2  45    4.9638   375.3    8.762      33.557
2015    4       27     2  51    4.9648   375.4    8.763      33.557
2015    4       27     2  57    4.9658   375.4    8.764      33.557
2015    4       27     3   3    4.9669   375.4    8.764      33.557
2015    4       27     3   9    4.9679   375.4    8.765      33.557
2015    4       27     3  14    4.9690   375.4    8.766      33.558
2015    4       27     3  20    4.9700   375.5    8.767      33.558
2015    4       27     3  26    4.9711   375.5    8.767      33.559
2015    4       27     3  32    4.9722   375.5    8.768      33.559
2015    4       27     3  38    4.9733   375.5    8.769      33.560
2015    4       27     3  44    4.9744   375.6    8.769      33.560
2015    4       27     3  49    4.9755   375.6    8.770      33.561
2015    4       27     3  55    4.9766   375.6    8.771      33.562
2015    4       27     4   1    4.9778   375.6    8.772      33.563
2015    4       27     4   7    4.9789   375.6    8.772      33.564
2015    4       27     4  13    4.9801   375.7    8.773      33.565
2015    4       27     4  18    4.9812   375.7    8.774      33.566
2015    4       27     4  24    4.9824   375.7    8.775      33.567
2015    4       27     4  30    4.9836   375.7    8.775      33.568
2015    4       27     4  36    4.9848   375.8    8.776      33.569
2015    4       27     4  42    4.9860   375.8    8.777      33.569
2015    4       27     4  48    4.9873   375.8    8.778      33.570
2015    4       27     4  53    4.9885   375.8    8.778      33.571
2015    4       27     4  59    4.9898   375.9    8.779      33.572
2015    4       27     5   5    4.9911   375.9    8.780      33.573
2015    4       27     5  11    4.9924   375.9    8.781      33.574
2015    4       27     5  17    4.9937   375.9    8.782      33.575
2015    4       27     5  23    4.9950   375.9    8.782      33.576
2015    4       27     5  28    4.9963   376.0    8.783      33.577
2015    4       27     5  34    4.9977   376.0    8.784      33.578
2015    4       27     5  40    4.9991   376.0    8.785      33.579
2015    4       27     5  46    5.0004   376.0    8.786      33.580
2015    4       27     5  52    5.0019   376.1    8.787      33.581
2015    4       27     5  58    5.0033   376.1    8.788      33.582
2015    4       27     6   3    5.0047   376.1    8.789      33.583
2015    4       27     6   9    5.0062   376.1    8.791      33.584
2015    4       27     6  15    5.0077   376.1    8.792      33.585
2015    4       27     6  21    5.0091   376.2    8.793      33.586
2015    4       27     6  27    5.0107   376.2    8.795      33.587
2015    4       27     6  33    5.0122   376.2    8.796      33.589
2015    4       27     6  38    5.0138   376.2    8.798      33.590
2015    4       27     6  44    5.0154   376.3    8.799      33.592
2015    4       27     6  50    5.0170   376.3    8.801      33.593
2015    4       27     6  56    5.0186   376.3    8.803      33.595
2015    4       27     7   2    5.0203   376.3    8.805      33.597
2015    4       27     7   8    5.0220   376.4    8.807      33.599
2015    4       27     7  13    5.0236   376.4    8.809      33.601
2015    4       27     7  19    5.0253   376.4    8.811      33.603
2015    4       27     7  25    5.0270   376.4    8.813      33.606
2015    4       27     7  31    5.0287   376.5    8.816      33.609
2015    4       27     7  37    5.0305   376.5    8.818      33.612
2015    4       27     7  43    5.0322   376.5    8.821      33.615
2015    4       27     7  48    5.0339   376.5    8.823      33.619
2015    4       27     7  54    5.0356   376.6    8.826      33.623
2015    4       27     8   0    5.0374   376.6    8.828      33.627
2015    4       27     8   6    5.0391   376.6    8.831      33.630
2015    4       27     8  12    5.0409   376.7    8.833      33.635
2015    4       27     8  17    5.0426   376.7    8.836      33.639
2015    4       27     8  23    5.0444   376.7    8.839      33.643
2015    4       27     8  29    5.0461   376.7    8.842      33.647
2015    4       27     8  35    5.0479   376.8    8.845      33.651
2015    4       27     8  41    5.0497   376.8    8.847      33.655
2015    4       27     8  47    5.0515   376.8    8.850      33.659
2015    4       27     8  52    5.0532   376.9    8.853      33.663
2015    4       27     8  58    5.0550   376.9    8.856      33.668
2015    4       27     9   4    5.0568   376.9    8.859      33.672
2015    4       27     9  10    5.0587   377.0    8.863      33.676
2015    4       27     9  16    5.0605   377.0    8.866      33.681
2015    4       27     9  22    5.0624   377.0    8.869      33.685
2015    4       27     9  27    5.0642   377.0    8.873      33.690
2015    4       27     9  33    5.0661   377.1    8.876      33.695
2015    4       27     9  39    5.0680   377.1    8.879      33.700
2015    4       27     9  45    5.0699   377.1    8.883      33.706
2015    4       27     9  51    5.0718   377.2    8.886      33.711
2015    4       27     9  57    5.0738   377.2    8.890      33.717
2015    4       27    10   2    5.0757   377.3    8.893      33.723
2015    4       27    10   8    5.0777   377.3    8.897      33.730
2015    4       27    10  14    5.0796   377.3    8.900      33.736
2015    4       27    10  20    5.0816   377.4    8.904      33.742
2015    4       27    10  26    5.0835   377.4    8.907      33.749
2015    4       27    10  32    5.0855   377.4    8.911      33.755
2015    4       27    10  37    5.0875   377.5    8.914      33.762
2015    4       27    10  43    5.0895   377.5    8.917      33.769
2015    4       27    10  49    5.0915   377.5    8.921      33.775
2015    4       27    10  55    5.0935   377.6    8.924      33.782
2015    4       27    11   1    5.0956   377.6    8.928      33.789
2015    4       27    11   7    5.0976   377.6    8.931      33.795
2015    4       27    11  12    5.0996   377.7    8.934      33.802
2015    4       27    11  18    5.1017   377.7    8.937      33.809
2015    4       27    11  24    5.1038   377.8    8.941      33.816
2015    4       27    11  30    5.1059   377.8    8.944      33.823
2015    4       27    11  36    5.1080   377.8    8.947      33.830
2015    4       27    11  41    5.1101   377.9    8.950      33.837
2015    4       27    11  47    5.1122   377.9    8.954      33.844
2015    4       27    11  53    5.1144   377.9    8.957      33.851
2015    4       27    11  59    5.1165   378.0    8.960      33.858
2015    4       27    12   5    5.1187   378.0    8.963      33.865
2015    4       27    12  11    5.1209   378.1    8.966      33.872
2015    4       27    12  16    5.1232   378.1    8.970      33.879
2015    4       27    12  22    5.1254   378.1    8.973      33.887
2015    4       27    12  28    5.1277   378.2    8.976      33.894
2015    4       27    12  34    5.1300   378.2    8.980      33.901
2015    4       27    12  40    5.1324   378.3    8.983      33.909
2015    4       27    12  46    5.1347   378.3    8.986      33.916
2015    4       27    12  51    5.1371   378.3    8.990      33.924
2015    4       27    12  57    5.1396   378.4    8.993      33.932
2015    4       27    13   3    5.1420   378.4    8.997      33.940
2015    4       27    13   9    5.1445   378.4    9.001      33.948
2015    4       27    13  15    5.1471   378.5    9.005      33.956
2015    4       27    13  21    5.1497   378.5    9.009      33.965
2015    4       27    13  26    5.1523   378.6    9.013      33.974
2015    4       27    13  32    5.1550   378.6    9.017      33.983
2015    4       27    13  38    5.1577   378.6    9.021      33.992
2015    4       27    13  44    5.1604   378.7    9.026      34.002
2015    4       27    13  50    5.1633   378.7    9.031      34.011
2015    4       27    13  56    5.1662   378.8    9.036      34.021
2015    4       27    14   1    5.1691   378.8    9.041      34.032
2015    4       27    14   7    5.1720   378.9    9.046      34.043
2015    4       27    14  13    5.1750   378.9    9.052      34.055
2015    4       27    14  19    5.1780   379.0    9.057      34.067
2015    4       27    14  25    5.1811   379.0    9.063      34.080
2015    4       27    14  31    5.1842   379.1    9.068      34.093
2015    4       27    14  36    5.1872   379.1    9.074      34.107
2015    4       27    14  42    5.1903   379.2    9.080      34.122
2015    4       27    14  48    5.1934   379.2    9.086      34.137
2015    4       27    14  54    5.1965   379.3    9.091      34.151
2015    4       27    15   0    5.1996   379.3    9.097      34.167
2015    4       27    15   6    5.2027   379.4    9.103      34.182
2015    4       27    15  11    5.2058   379.5    9.108      34.197
2015    4       27    15  17    5.2088   379.5    9.114      34.212
2015    4       27    15  23    5.2119   379.6    9.120      34.227
2015    4       27    15  29    5.2150   379.6    9.125      34.242
2015    4       27    15  35    5.2180   379.7    9.131      34.257
2015    4       27    15  40    5.2210   379.8    9.136      34.271
2015    4       27    15  46    5.2240   379.8    9.141      34.286
2015    4       27    15  52    5.2270   379.9    9.147      34.302
2015    4       27    15  58    5.2300   379.9    9.152      34.317
2015    4       27    16   4    5.2329   380.0    9.157      34.332
2015    4       27    16  10    5.2359   380.1    9.162      34.348
2015    4       27    16  15    5.2388   380.1    9.167      34.364
2015    4       27    16  21    5.2417   380.2    9.171      34.380
2015    4       27    16  27    5.2446   380.3    9.176      34.395
2015    4       27    16  33    5.2475   380.3    9.180      34.410
2015    4       27    16  39    5.2504   380.4    9.185      34.425
2015    4       27    16  45    5.2533   380.5    9.189      34.440
2015    4       27    16  50    5.2562   380.6    9.193      34.455
2015    4       27    16  56    5.2591   380.6    9.197      34.470
2015    4       27    17   2    5.2619   380.7    9.201      34.484
2015    4       27    17   8    5.2648   380.8    9.205      34.499
2015    4       27    17  14    5.2676   380.8    9.209      34.514
2015    4       27    17  20    5.2704   380.9    9.212      34.529
2015    4       27    17  25    5.2733   381.0    9.216      34.543
2015    4       27    17  31    5.2761   381.0    9.219      34.558
2015    4       27    17  37    5.2789   381.1    9.222      34.572
2015    4       27    17  43    5.2817   381.2    9.225      34.587
2015    4       27    17  49    5.2845   381.3    9.228      34.601
2015    4       27    17  55    5.2873   381.3    9.231      34.615
2015    4       27    18   0    5.2901   381.4    9.234      34.629
2015    4       27    18   6    5.2929   381.5    9.237      34.642
2015    4       27    18  12    5.2957   381.6    9.239      34.656
2015    4       27    18  18    5.2985   381.6    9.242      34.669
2015    4       27    18  24    5.3012   381.7    9.244      34.682
2015    4       27    18  30    5.3041   381.8    9.247      34.695
2015    4       27    18  35    5.3068   381.9    9.249      34.708
2015    4       27    18  41    5.3097   381.9    9.251      34.721
2015    4       27    18  47    5.3125   382.0    9.253      34.733
2015    4       27    18  53    5.3153   382.1    9.255      34.746
2015    4       27    18  59    5.3181   382.1    9.258      34.758
2015    4       27    19   4    5.3209   382.2    9.260      34.771
2015    4       27    19  10    5.3238   382.3    9.262      34.783
2015    4       27    19  16    5.3266   382.4    9.264      34.795
2015    4       27    19  22    5.3295   382.4    9.266      34.808
2015    4       27    19  28    5.3324   382.5    9.268      34.820
2015    4       27    19  34    5.3353   382.6    9.270      34.832
2015    4       27    19  39    5.3382   382.7    9.272      34.844
2015    4       27    19  45    5.3411   382.7    9.274      34.856
2015    4       27    19  51    5.3441   382.8    9.276      34.868
2015    4       27    19  57    5.3470   382.9    9.278      34.880
2015    4       27    20   3    5.3500   383.0    9.281      34.892
2015    4       27    20   9    5.3530   383.0    9.283      34.904
2015    4       27    20  14    5.3561   383.1    9.285      34.917
2015    4       27    20  20    5.3591   383.2    9.287      34.929
2015    4       27    20  26    5.3622   383.3    9.290      34.942
2015    4       27    20  32    5.3654   383.3    9.292      34.955
2015    4       27    20  38    5.3685   383.4    9.295      34.968
2015    4       27    20  44    5.3717   383.5    9.298      34.981
2015    4       27    20  49    5.3749   383.6    9.301      34.994
2015    4       27    20  55    5.3782   383.6    9.304      35.008
2015    4       27    21   1    5.3815   383.7    9.307      35.022
2015    4       27    21   7    5.3849   383.8    9.310      35.035
2015    4       27    21  13    5.3883   383.9    9.314      35.050
2015    4       27    21  19    5.3917   383.9    9.318      35.065
2015    4       27    21  24    5.3952   384.0    9.322      35.081
2015    4       27    21  30    5.3988   384.1    9.326      35.097
2015    4       27    21  36    5.4023   384.2    9.330      35.114
2015    4       27    21  42    5.4059   384.3    9.334      35.131
2015    4       27    21  48    5.4096   384.4    9.339      35.149
2015    4       27    21  54    5.4132   384.4    9.344      35.167
2015    4       27    21  59    5.4169   384.5    9.348      35.186
2015    4       27    22   5    5.4206   384.6    9.353      35.205
2015    4       27    22  11    5.4243   384.7    9.358      35.224
2015    4       27    22  17    5.4280   384.8    9.363      35.244
2015    4       27    22  23    5.4317   384.9    9.368      35.264
2015    4       27    22  28    5.4354   385.0    9.373      35.284
2015    4       27    22  34    5.4391   385.1    9.378      35.305
2015    4       27    22  40    5.4428   385.2    9.384      35.326
2015    4       27    22  46    5.4464   385.2    9.389      35.348
2015    4       27    22  52    5.4501   385.3    9.394      35.370
2015    4       27    22  58    5.4538   385.4    9.399      35.393
2015    4       27    23   3    5.4575   385.5    9.405      35.417
2015    4       27    23   9    5.4611   385.6    9.410      35.441
2015    4       27    23  15    5.4648   385.7    9.415      35.465
2015    4       27    23  21    5.4684   385.8    9.421      35.491
2015    4       27    23  27    5.4720   385.9    9.426      35.518
2015    4       27    23  33    5.4756   386.0    9.431      35.545
2015    4       27    23  38    5.4791   386.1    9.436      35.573
2015    4       27    23  44    5.4826   386.2    9.440      35.601
2015    4       27    23  50    5.4861   386.3    9.445      35.630
2015    4       27    23  56    5.4896   386.4    9.449      35.658
2015    4       28     0   2    5.4930   386.5    9.453      35.688
2015    4       28     0   8    5.4964   386.6    9.457      35.716
2015    4       28     0  13    5.4998   386.7    9.460      35.745
2015    4       28     0  19    5.5031   386.8    9.463      35.773
2015    4       28     0  25    5.5064   386.9    9.467      35.800
2015    4       28     0  31    5.5097   387.0    9.469      35.827
2015    4       28     0  37    5.5130   387.1    9.472      35.854
2015    4       28     0  43    5.5162   387.2    9.475      35.881
2015    4       28     0  48    5.5194   387.3    9.477      35.907
2015    4       28     0  54    5.5226   387.4    9.479      35.933
2015    4       28     1   0    5.5258   387.5    9.481      35.959
2015    4       28     1   6    5.5290   387.7    9.483      35.984
2015    4       28     1  12    5.5321   387.8    9.484      36.008
2015    4       28     1  18    5.5353   387.9    9.486      36.033
2015    4       28     1  23    5.5384   388.0    9.487      36.057
2015    4       28     1  29    5.5415   388.1    9.488      36.080
2015    4       28     1  35    5.5446   388.2    9.489      36.104
2015    4       28     1  41    5.5477   388.3    9.490      36.127
2015    4       28     1  47    5.5508   388.4    9.491      36.150
2015    4       28     1  53    5.5539   388.5    9.491      36.172
2015    4       28     1  58    5.5570   388.6    9.492      36.195
2015    4       28     2   4    5.5600   388.7    9.492      36.217
2015    4       28     2  10    5.5631   388.8    9.493      36.239
2015    4       28     2  16    5.5662   388.9    9.493      36.261
2015    4       28     2  22    5.5693   389.0    9.493      36.282
2015    4       28     2  27    5.5723   389.1    9.493      36.304
2015    4       28     2  33    5.5754   389.2    9.493      36.325
2015    4       28     2  39    5.5785   389.3    9.493      36.346
2015    4       28     2  45    5.5816   389.4    9.493      36.367
2015    4       28     2  51    5.5846   389.5    9.493      36.388
2015    4       28     2  57    5.5877   389.6    9.493      36.409
2015    4       28     3   2    5.5908   389.8    9.493      36.429
2015    4       28     3   8    5.5939   389.9    9.493      36.450
2015    4       28     3  14    5.5970   390.0    9.492      36.470
2015    4       28     3  20    5.6001   390.1    9.492      36.491
2015    4       28     3  26    5.6032   390.2    9.492      36.511
2015    4       28     3  32    5.6063   390.3    9.492      36.532
2015    4       28     3  37    5.6094   390.4    9.491      36.552
2015    4       28     3  43    5.6125   390.5    9.491      36.572
2015    4       28     3  49    5.6157   390.6    9.491      36.593
2015    4       28     3  55    5.6188   390.7    9.490      36.613
2015    4       28     4   1    5.6220   390.8    9.490      36.633
2015    4       28     4   7    5.6251   390.9    9.490      36.654
2015    4       28     4  12    5.6283   391.0    9.490      36.674
2015    4       28     4  18    5.6315   391.1    9.490      36.695
