year    month   day   hour  minute  B_enl V_enl   n_enl       T_enl
[year] [month] [day] [hour][minute] [nT]  [km/s]  [cm-3]      [kK]
2015    4        1     0   5    6.1200   584.8    4.739      64.603
2015    4        1     0  10    6.1167   585.1    4.732      64.628
2015    4        1     0  16    6.1134   585.4    4.726      64.654
2015    4        1     0  22    6.1100   585.7    4.719      64.680
2015    4        1     0  28    6.1067   586.1    4.712      64.707
2015    4        1     0  33    6.1035   586.4    4.705      64.733
2015    4        1     0  39    6.1002   586.7    4.698      64.760
2015    4        1     0  45    6.0969   587.0    4.692      64.787
2015    4        1     0  50    6.0937   587.3    4.685      64.814
2015    4        1     0  56    6.0904   587.6    4.679      64.841
2015    4        1     1   2    6.0872   587.9    4.672      64.868
2015    4        1     1   8    6.0840   588.2    4.666      64.896
2015    4        1     1  13    6.0808   588.5    4.659      64.923
2015    4        1     1  19    6.0775   588.8    4.653      64.951
2015    4        1     1  25    6.0743   589.1    4.646      64.978
2015    4        1     1  30    6.0712   589.4    4.640      65.006
2015    4        1     1  36    6.0680   589.8    4.633      65.033
2015    4        1     1  42    6.0648   590.1    4.627      65.061
2015    4        1     1  48    6.0616   590.4    4.620      65.089
2015    4        1     1  53    6.0585   590.7    4.614      65.116
2015    4        1     1  59    6.0553   591.0    4.607      65.143
2015    4        1     2   5    6.0522   591.3    4.601      65.170
2015    4        1     2  10    6.0490   591.6    4.594      65.197
2015    4        1     2  16    6.0459   591.9    4.588      65.224
2015    4        1     2  22    6.0428   592.2    4.581      65.250
2015    4        1     2  28    6.0397   592.5    4.575      65.276
2015    4        1     2  33    6.0366   592.8    4.568      65.302
2015    4        1     2  39    6.0336   593.1    4.562      65.328
2015    4        1     2  45    6.0305   593.4    4.555      65.354
2015    4        1     2  50    6.0275   593.7    4.548      65.379
2015    4        1     2  56    6.0244   594.0    4.542      65.404
2015    4        1     3   2    6.0214   594.3    4.535      65.429
2015    4        1     3   8    6.0184   594.6    4.529      65.454
2015    4        1     3  13    6.0154   594.9    4.522      65.479
2015    4        1     3  19    6.0124   595.2    4.516      65.504
2015    4        1     3  25    6.0094   595.5    4.509      65.528
2015    4        1     3  31    6.0065   595.8    4.502      65.553
2015    4        1     3  36    6.0035   596.1    4.496      65.577
2015    4        1     3  42    6.0005   596.4    4.489      65.602
2015    4        1     3  48    5.9975   596.7    4.483      65.626
2015    4        1     3  53    5.9946   597.0    4.476      65.650
2015    4        1     3  59    5.9916   597.3    4.470      65.674
2015    4        1     4   5    5.9886   597.6    4.463      65.698
2015    4        1     4  11    5.9857   597.9    4.457      65.722
2015    4        1     4  16    5.9827   598.2    4.450      65.746
2015    4        1     4  22    5.9798   598.5    4.444      65.769
2015    4        1     4  28    5.9768   598.8    4.437      65.793
2015    4        1     4  33    5.9739   599.1    4.431      65.817
2015    4        1     4  39    5.9709   599.4    4.425      65.840
2015    4        1     4  45    5.9680   599.7    4.418      65.864
2015    4        1     4  51    5.9651   600.0    4.412      65.887
2015    4        1     4  56    5.9621   600.3    4.406      65.911
2015    4        1     5   2    5.9592   600.6    4.399      65.935
2015    4        1     5   8    5.9563   600.9    4.393      65.959
2015    4        1     5  14    5.9534   601.2    4.387      65.982
2015    4        1     5  19    5.9505   601.5    4.381      66.006
2015    4        1     5  25    5.9476   601.8    4.375      66.030
2015    4        1     5  31    5.9447   602.1    4.368      66.054
2015    4        1     5  36    5.9418   602.4    4.362      66.079
2015    4        1     5  42    5.9389   602.7    4.356      66.103
2015    4        1     5  48    5.9360   602.9    4.350      66.128
2015    4        1     5  54    5.9331   603.2    4.344      66.152
2015    4        1     5  59    5.9302   603.5    4.338      66.177
2015    4        1     6   5    5.9274   603.8    4.332      66.202
2015    4        1     6  11    5.9245   604.1    4.326      66.228
2015    4        1     6  16    5.9216   604.4    4.320      66.253
2015    4        1     6  22    5.9188   604.7    4.315      66.279
2015    4        1     6  28    5.9159   605.0    4.309      66.305
2015    4        1     6  34    5.9131   605.3    4.303      66.331
2015    4        1     6  39    5.9102   605.6    4.297      66.357
2015    4        1     6  45    5.9074   605.9    4.292      66.384
2015    4        1     6  51    5.9046   606.2    4.286      66.410
2015    4        1     6  57    5.9017   606.5    4.280      66.437
2015    4        1     7   2    5.8989   606.8    4.275      66.464
2015    4        1     7   8    5.8961   607.0    4.269      66.492
2015    4        1     7  14    5.8933   607.3    4.264      66.519
2015    4        1     7  19    5.8905   607.6    4.258      66.546
2015    4        1     7  25    5.8876   607.9    4.253      66.574
2015    4        1     7  31    5.8848   608.2    4.247      66.602
2015    4        1     7  37    5.8820   608.5    4.242      66.630
2015    4        1     7  42    5.8792   608.8    4.237      66.658
2015    4        1     7  48    5.8764   609.1    4.231      66.686
2015    4        1     7  54    5.8736   609.4    4.226      66.713
2015    4        1     7  59    5.8708   609.6    4.221      66.741
2015    4        1     8   5    5.8680   609.9    4.215      66.769
2015    4        1     8  11    5.8653   610.2    4.210      66.797
2015    4        1     8  17    5.8625   610.5    4.205      66.825
2015    4        1     8  22    5.8597   610.8    4.199      66.852
2015    4        1     8  28    5.8569   611.1    4.194      66.880
2015    4        1     8  34    5.8542   611.4    4.189      66.907
2015    4        1     8  39    5.8514   611.6    4.183      66.934
2015    4        1     8  45    5.8486   611.9    4.178      66.961
2015    4        1     8  51    5.8459   612.2    4.173      66.988
2015    4        1     8  57    5.8431   612.5    4.167      67.015
2015    4        1     9   2    5.8404   612.8    4.162      67.041
2015    4        1     9   8    5.8376   613.1    4.157      67.067
2015    4        1     9  14    5.8349   613.3    4.151      67.093
2015    4        1     9  19    5.8322   613.6    4.146      67.119
2015    4        1     9  25    5.8295   613.9    4.141      67.144
2015    4        1     9  31    5.8267   614.2    4.135      67.170
2015    4        1     9  37    5.8240   614.5    4.130      67.195
2015    4        1     9  42    5.8213   614.7    4.124      67.219
2015    4        1     9  48    5.8186   615.0    4.119      67.244
2015    4        1     9  54    5.8159   615.3    4.114      67.268
2015    4        1    10   0    5.8132   615.6    4.108      67.292
2015    4        1    10   5    5.8105   615.9    4.103      67.316
2015    4        1    10  11    5.8078   616.1    4.097      67.339
2015    4        1    10  17    5.8051   616.4    4.092      67.363
2015    4        1    10  22    5.8024   616.7    4.087      67.386
2015    4        1    10  28    5.7997   617.0    4.081      67.409
2015    4        1    10  34    5.7970   617.3    4.076      67.432
2015    4        1    10  40    5.7943   617.5    4.070      67.454
2015    4        1    10  45    5.7917   617.8    4.065      67.477
2015    4        1    10  51    5.7890   618.1    4.060      67.499
2015    4        1    10  57    5.7863   618.4    4.054      67.522
2015    4        1    11   2    5.7836   618.7    4.049      67.544
2015    4        1    11   8    5.7809   618.9    4.043      67.566
2015    4        1    11  14    5.7782   619.2    4.038      67.588
2015    4        1    11  20    5.7755   619.5    4.033      67.609
2015    4        1    11  25    5.7728   619.8    4.027      67.631
2015    4        1    11  31    5.7701   620.0    4.022      67.653
2015    4        1    11  37    5.7674   620.3    4.017      67.674
2015    4        1    11  42    5.7647   620.6    4.012      67.696
2015    4        1    11  48    5.7619   620.9    4.006      67.717
2015    4        1    11  54    5.7592   621.1    4.001      67.738
2015    4        1    12   0    5.7565   621.4    3.996      67.759
2015    4        1    12   5    5.7538   621.7    3.990      67.780
2015    4        1    12  11    5.7510   622.0    3.985      67.801
2015    4        1    12  17    5.7483   622.2    3.980      67.822
2015    4        1    12  23    5.7456   622.5    3.975      67.843
2015    4        1    12  28    5.7428   622.8    3.970      67.864
2015    4        1    12  34    5.7401   623.0    3.964      67.885
2015    4        1    12  40    5.7374   623.3    3.959      67.905
2015    4        1    12  45    5.7346   623.6    3.954      67.926
2015    4        1    12  51    5.7319   623.9    3.949      67.947
2015    4        1    12  57    5.7291   624.1    3.944      67.968
2015    4        1    13   3    5.7264   624.4    3.939      67.989
2015    4        1    13   8    5.7237   624.7    3.934      68.010
2015    4        1    13  14    5.7209   624.9    3.929      68.032
2015    4        1    13  20    5.7182   625.2    3.924      68.053
2015    4        1    13  26    5.7155   625.5    3.919      68.075
2015    4        1    13  31    5.7127   625.7    3.914      68.097
2015    4        1    13  37    5.7100   626.0    3.909      68.119
2015    4        1    13  43    5.7073   626.3    3.905      68.141
2015    4        1    13  48    5.7046   626.5    3.900      68.164
2015    4        1    13  54    5.7019   626.8    3.895      68.186
2015    4        1    14   0    5.6991   627.0    3.890      68.209
2015    4        1    14   6    5.6964   627.3    3.886      68.232
2015    4        1    14  11    5.6937   627.6    3.881      68.255
2015    4        1    14  17    5.6910   627.8    3.876      68.279
2015    4        1    14  23    5.6883   628.1    3.872      68.302
2015    4        1    14  28    5.6856   628.4    3.867      68.326
2015    4        1    14  34    5.6829   628.6    3.863      68.350
2015    4        1    14  40    5.6802   628.9    3.858      68.374
2015    4        1    14  46    5.6775   629.1    3.854      68.398
2015    4        1    14  51    5.6747   629.4    3.849      68.422
2015    4        1    14  57    5.6720   629.7    3.845      68.446
2015    4        1    15   3    5.6693   629.9    3.840      68.470
2015    4        1    15   8    5.6666   630.2    3.836      68.494
2015    4        1    15  14    5.6639   630.4    3.831      68.517
2015    4        1    15  20    5.6612   630.7    3.827      68.541
2015    4        1    15  26    5.6585   630.9    3.822      68.565
2015    4        1    15  31    5.6558   631.2    3.818      68.589
2015    4        1    15  37    5.6531   631.5    3.814      68.612
2015    4        1    15  43    5.6504   631.7    3.809      68.635
2015    4        1    15  48    5.6477   632.0    3.805      68.659
2015    4        1    15  54    5.6450   632.2    3.800      68.682
2015    4        1    16   0    5.6423   632.5    3.796      68.705
2015    4        1    16   6    5.6396   632.7    3.791      68.728
2015    4        1    16  11    5.6370   633.0    3.787      68.750
2015    4        1    16  17    5.6343   633.2    3.782      68.772
2015    4        1    16  23    5.6316   633.5    3.778      68.795
2015    4        1    16  28    5.6289   633.7    3.774      68.817
2015    4        1    16  34    5.6263   634.0    3.769      68.838
2015    4        1    16  40    5.6236   634.2    3.765      68.860
2015    4        1    16  46    5.6209   634.5    3.760      68.881
2015    4        1    16  51    5.6183   634.7    3.756      68.902
2015    4        1    16  57    5.6156   635.0    3.751      68.923
2015    4        1    17   3    5.6129   635.2    3.747      68.943
2015    4        1    17   9    5.6103   635.5    3.742      68.963
2015    4        1    17  14    5.6076   635.7    3.738      68.983
2015    4        1    17  20    5.6049   636.0    3.733      69.003
2015    4        1    17  26    5.6023   636.2    3.729      69.022
2015    4        1    17  31    5.5996   636.5    3.725      69.041
2015    4        1    17  37    5.5969   636.7    3.720      69.060
2015    4        1    17  43    5.5943   637.0    3.716      69.079
2015    4        1    17  49    5.5916   637.2    3.711      69.097
2015    4        1    17  54    5.5889   637.4    3.707      69.115
2015    4        1    18   0    5.5862   637.7    3.702      69.133
2015    4        1    18   6    5.5836   637.9    3.698      69.151
2015    4        1    18  11    5.5809   638.2    3.693      69.168
2015    4        1    18  17    5.5782   638.4    3.689      69.186
2015    4        1    18  23    5.5755   638.7    3.684      69.203
2015    4        1    18  29    5.5729   638.9    3.680      69.220
2015    4        1    18  34    5.5702   639.1    3.676      69.237
2015    4        1    18  40    5.5675   639.4    3.671      69.254
2015    4        1    18  46    5.5648   639.6    3.667      69.270
2015    4        1    18  52    5.5621   639.9    3.662      69.287
2015    4        1    18  57    5.5594   640.1    3.658      69.304
2015    4        1    19   3    5.5568   640.3    3.654      69.320
2015    4        1    19   9    5.5541   640.6    3.649      69.337
2015    4        1    19  14    5.5514   640.8    3.645      69.353
2015    4        1    19  20    5.5487   641.1    3.641      69.370
2015    4        1    19  26    5.5460   641.3    3.636      69.386
2015    4        1    19  32    5.5433   641.5    3.632      69.402
2015    4        1    19  37    5.5406   641.8    3.628      69.419
2015    4        1    19  43    5.5379   642.0    3.624      69.435
2015    4        1    19  49    5.5352   642.2    3.619      69.451
2015    4        1    19  54    5.5325   642.5    3.615      69.467
2015    4        1    20   0    5.5297   642.7    3.611      69.483
2015    4        1    20   6    5.5270   642.9    3.607      69.499
2015    4        1    20  12    5.5243   643.2    3.603      69.515
2015    4        1    20  17    5.5216   643.4    3.598      69.531
2015    4        1    20  23    5.5188   643.6    3.594      69.547
2015    4        1    20  29    5.5161   643.9    3.590      69.563
2015    4        1    20  35    5.5134   644.1    3.586      69.579
2015    4        1    20  40    5.5106   644.3    3.582      69.594
2015    4        1    20  46    5.5079   644.5    3.578      69.610
2015    4        1    20  52    5.5051   644.8    3.574      69.626
2015    4        1    20  57    5.5024   645.0    3.569      69.642
2015    4        1    21   3    5.4997   645.2    3.565      69.658
2015    4        1    21   9    5.4969   645.4    3.561      69.674
2015    4        1    21  15    5.4942   645.7    3.557      69.690
2015    4        1    21  20    5.4914   645.9    3.553      69.706
2015    4        1    21  26    5.4887   646.1    3.549      69.722
2015    4        1    21  32    5.4860   646.3    3.546      69.739
2015    4        1    21  37    5.4832   646.6    3.542      69.755
2015    4        1    21  43    5.4805   646.8    3.538      69.772
2015    4        1    21  49    5.4778   647.0    3.534      69.789
2015    4        1    21  55    5.4751   647.2    3.530      69.806
2015    4        1    22   0    5.4723   647.4    3.526      69.823
2015    4        1    22   6    5.4696   647.7    3.523      69.841
2015    4        1    22  12    5.4669   647.9    3.519      69.858
2015    4        1    22  17    5.4642   648.1    3.515      69.876
2015    4        1    22  23    5.4615   648.3    3.511      69.893
2015    4        1    22  29    5.4588   648.5    3.508      69.910
2015    4        1    22  35    5.4561   648.7    3.504      69.928
2015    4        1    22  40    5.4534   649.0    3.500      69.945
2015    4        1    22  46    5.4507   649.2    3.497      69.962
2015    4        1    22  52    5.4479   649.4    3.493      69.979
2015    4        1    22  57    5.4452   649.6    3.490      69.996
2015    4        1    23   3    5.4425   649.8    3.486      70.012
2015    4        1    23   9    5.4398   650.0    3.482      70.028
2015    4        1    23  15    5.4371   650.2    3.479      70.044
2015    4        1    23  20    5.4344   650.4    3.475      70.060
2015    4        1    23  26    5.4317   650.6    3.471      70.075
2015    4        1    23  32    5.4290   650.9    3.468      70.090
2015    4        1    23  38    5.4263   651.1    3.464      70.104
2015    4        1    23  43    5.4236   651.3    3.460      70.118
2015    4        1    23  49    5.4209   651.5    3.457      70.132
2015    4        1    23  55    5.4182   651.7    3.453      70.146
2015    4        2     0   0    5.4155   651.9    3.449      70.159
2015    4        2     0   6    5.4128   652.1    3.446      70.172
2015    4        2     0  12    5.4102   652.3    3.442      70.184
2015    4        2     0  18    5.4075   652.5    3.439      70.197
2015    4        2     0  23    5.4048   652.7    3.435      70.209
2015    4        2     0  29    5.4021   652.9    3.431      70.221
2015    4        2     0  35    5.3995   653.1    3.428      70.233
2015    4        2     0  40    5.3968   653.3    3.424      70.244
2015    4        2     0  46    5.3941   653.5    3.420      70.255
2015    4        2     0  52    5.3915   653.7    3.417      70.267
2015    4        2     0  58    5.3888   653.9    3.413      70.278
2015    4        2     1   3    5.3862   654.1    3.410      70.289
2015    4        2     1   9    5.3835   654.3    3.406      70.299
2015    4        2     1  15    5.3809   654.5    3.402      70.310
2015    4        2     1  20    5.3782   654.7    3.399      70.321
2015    4        2     1  26    5.3756   654.9    3.395      70.331
2015    4        2     1  32    5.3729   655.1    3.392      70.342
2015    4        2     1  38    5.3702   655.3    3.388      70.352
2015    4        2     1  43    5.3676   655.5    3.385      70.362
2015    4        2     1  49    5.3649   655.7    3.381      70.372
2015    4        2     1  55    5.3623   655.8    3.378      70.382
2015    4        2     2   1    5.3596   656.0    3.374      70.393
2015    4        2     2   6    5.3569   656.2    3.371      70.403
2015    4        2     2  12    5.3543   656.4    3.367      70.413
2015    4        2     2  18    5.3516   656.6    3.364      70.423
2015    4        2     2  23    5.3489   656.8    3.360      70.434
2015    4        2     2  29    5.3462   657.0    3.357      70.444
2015    4        2     2  35    5.3436   657.2    3.353      70.455
2015    4        2     2  41    5.3409   657.4    3.350      70.466
2015    4        2     2  46    5.3382   657.5    3.346      70.476
2015    4        2     2  52    5.3356   657.7    3.343      70.487
2015    4        2     2  58    5.3329   657.9    3.339      70.498
2015    4        2     3   3    5.3302   658.1    3.336      70.510
2015    4        2     3   9    5.3276   658.3    3.333      70.521
2015    4        2     3  15    5.3249   658.5    3.329      70.532
2015    4        2     3  21    5.3223   658.6    3.326      70.544
2015    4        2     3  26    5.3196   658.8    3.323      70.555
2015    4        2     3  32    5.3169   659.0    3.320      70.567
2015    4        2     3  38    5.3142   659.2    3.316      70.579
2015    4        2     3  44    5.3116   659.4    3.313      70.591
2015    4        2     3  49    5.3089   659.5    3.310      70.603
