year    month   day   hour  minute  B_enl V_enl   n_enl       T_enl
[year] [month] [day] [hour][minute] [nT]  [km/s]  [cm-3]      [kK]
2015    4        1     0   3    6.1017   586.7    4.803      65.353
2015    4        1     0   8    6.0981   587.1    4.795      65.383
2015    4        1     0  14    6.0945   587.4    4.787      65.412
2015    4        1     0  20    6.0910   587.8    4.779      65.441
2015    4        1     0  26    6.0874   588.1    4.771      65.470
2015    4        1     0  32    6.0838   588.4    4.763      65.498
2015    4        1     0  37    6.0802   588.8    4.756      65.526
2015    4        1     0  43    6.0766   589.1    4.748      65.554
2015    4        1     0  49    6.0730   589.5    4.740      65.582
2015    4        1     0  55    6.0694   589.8    4.732      65.610
2015    4        1     1   1    6.0658   590.2    4.724      65.637
2015    4        1     1   6    6.0622   590.5    4.716      65.664
2015    4        1     1  12    6.0586   590.8    4.708      65.691
2015    4        1     1  18    6.0550   591.2    4.700      65.719
2015    4        1     1  24    6.0514   591.5    4.692      65.746
2015    4        1     1  30    6.0477   591.9    4.685      65.773
2015    4        1     1  35    6.0441   592.2    4.677      65.800
2015    4        1     1  41    6.0405   592.6    4.669      65.827
2015    4        1     1  47    6.0369   592.9    4.661      65.853
2015    4        1     1  53    6.0333   593.2    4.653      65.880
2015    4        1     1  59    6.0296   593.6    4.646      65.907
2015    4        1     2   4    6.0260   593.9    4.638      65.933
2015    4        1     2  10    6.0224   594.3    4.630      65.960
2015    4        1     2  16    6.0187   594.6    4.622      65.986
2015    4        1     2  22    6.0151   594.9    4.615      66.012
2015    4        1     2  28    6.0114   595.3    4.607      66.038
2015    4        1     2  33    6.0078   595.6    4.600      66.064
2015    4        1     2  39    6.0041   596.0    4.592      66.091
2015    4        1     2  45    6.0005   596.3    4.585      66.117
2015    4        1     2  51    5.9968   596.6    4.577      66.143
2015    4        1     2  57    5.9931   597.0    4.570      66.169
2015    4        1     3   2    5.9895   597.3    4.562      66.195
2015    4        1     3   8    5.9859   597.7    4.555      66.221
2015    4        1     3  14    5.9822   598.0    4.548      66.247
2015    4        1     3  20    5.9786   598.3    4.540      66.273
2015    4        1     3  26    5.9749   598.7    4.533      66.299
2015    4        1     3  31    5.9713   599.0    4.526      66.325
2015    4        1     3  37    5.9677   599.3    4.518      66.350
2015    4        1     3  43    5.9641   599.7    4.511      66.376
2015    4        1     3  49    5.9604   600.0    4.504      66.401
2015    4        1     3  55    5.9569   600.3    4.497      66.426
2015    4        1     4   0    5.9533   600.7    4.490      66.451
2015    4        1     4   6    5.9497   601.0    4.482      66.476
2015    4        1     4  12    5.9461   601.3    4.475      66.501
2015    4        1     4  18    5.9425   601.7    4.468      66.526
2015    4        1     4  24    5.9390   602.0    4.461      66.551
2015    4        1     4  29    5.9354   602.3    4.454      66.575
2015    4        1     4  35    5.9319   602.6    4.447      66.600
2015    4        1     4  41    5.9284   603.0    4.440      66.624
2015    4        1     4  47    5.9248   603.3    4.433      66.648
2015    4        1     4  53    5.9213   603.6    4.426      66.672
2015    4        1     4  59    5.9178   604.0    4.419      66.696
2015    4        1     5   4    5.9143   604.3    4.412      66.720
2015    4        1     5  10    5.9108   604.6    4.405      66.743
2015    4        1     5  16    5.9074   604.9    4.398      66.767
2015    4        1     5  22    5.9039   605.3    4.391      66.791
2015    4        1     5  28    5.9004   605.6    4.384      66.814
2015    4        1     5  33    5.8970   605.9    4.377      66.838
2015    4        1     5  39    5.8935   606.2    4.370      66.862
2015    4        1     5  45    5.8901   606.6    4.363      66.886
2015    4        1     5  51    5.8866   606.9    4.356      66.910
2015    4        1     5  57    5.8832   607.2    4.350      66.934
2015    4        1     6   2    5.8797   607.5    4.343      66.958
2015    4        1     6   8    5.8763   607.9    4.336      66.982
2015    4        1     6  14    5.8728   608.2    4.330      67.007
2015    4        1     6  20    5.8694   608.5    4.323      67.031
2015    4        1     6  26    5.8660   608.8    4.316      67.056
2015    4        1     6  31    5.8625   609.1    4.310      67.081
2015    4        1     6  37    5.8591   609.5    4.303      67.106
2015    4        1     6  43    5.8556   609.8    4.297      67.131
2015    4        1     6  49    5.8521   610.1    4.290      67.156
2015    4        1     6  55    5.8487   610.4    4.284      67.180
2015    4        1     7   0    5.8452   610.7    4.277      67.205
2015    4        1     7   6    5.8417   611.1    4.271      67.230
2015    4        1     7  12    5.8382   611.4    4.264      67.255
2015    4        1     7  18    5.8347   611.7    4.258      67.279
2015    4        1     7  24    5.8312   612.0    4.252      67.303
2015    4        1     7  29    5.8277   612.3    4.245      67.327
2015    4        1     7  35    5.8241   612.7    4.239      67.350
2015    4        1     7  41    5.8206   613.0    4.232      67.374
2015    4        1     7  47    5.8170   613.3    4.226      67.397
2015    4        1     7  52    5.8135   613.6    4.219      67.419
2015    4        1     7  58    5.8099   613.9    4.213      67.441
2015    4        1     8   4    5.8064   614.2    4.206      67.463
2015    4        1     8  10    5.8028   614.6    4.200      67.485
2015    4        1     8  16    5.7992   614.9    4.193      67.506
2015    4        1     8  21    5.7957   615.2    4.187      67.527
2015    4        1     8  27    5.7921   615.5    4.180      67.548
2015    4        1     8  33    5.7885   615.8    4.174      67.569
2015    4        1     8  39    5.7850   616.1    4.167      67.590
2015    4        1     8  45    5.7814   616.4    4.161      67.611
2015    4        1     8  50    5.7778   616.8    4.155      67.631
2015    4        1     8  56    5.7742   617.1    4.148      67.652
2015    4        1     9   2    5.7707   617.4    4.142      67.673
2015    4        1     9   8    5.7671   617.7    4.136      67.693
2015    4        1     9  14    5.7635   618.0    4.130      67.714
2015    4        1     9  19    5.7599   618.3    4.123      67.735
2015    4        1     9  25    5.7564   618.6    4.117      67.756
2015    4        1     9  31    5.7528   618.9    4.111      67.777
2015    4        1     9  37    5.7492   619.2    4.105      67.798
2015    4        1     9  43    5.7457   619.5    4.099      67.819
2015    4        1     9  48    5.7421   619.8    4.093      67.840
2015    4        1     9  54    5.7386   620.1    4.087      67.862
2015    4        1    10   0    5.7350   620.4    4.081      67.883
2015    4        1    10   6    5.7315   620.8    4.075      67.904
2015    4        1    10  12    5.7280   621.1    4.069      67.925
2015    4        1    10  18    5.7245   621.4    4.063      67.947
2015    4        1    10  23    5.7209   621.7    4.057      67.968
2015    4        1    10  29    5.7174   622.0    4.051      67.989
2015    4        1    10  35    5.7139   622.3    4.045      68.010
2015    4        1    10  41    5.7104   622.6    4.039      68.031
2015    4        1    10  47    5.7069   622.9    4.034      68.051
2015    4        1    10  52    5.7034   623.2    4.028      68.071
2015    4        1    10  58    5.6999   623.5    4.022      68.091
2015    4        1    11   4    5.6964   623.8    4.016      68.111
2015    4        1    11  10    5.6930   624.1    4.010      68.130
2015    4        1    11  16    5.6895   624.4    4.004      68.150
2015    4        1    11  21    5.6860   624.7    3.998      68.169
2015    4        1    11  27    5.6825   625.0    3.992      68.187
2015    4        1    11  33    5.6791   625.3    3.987      68.206
2015    4        1    11  39    5.6756   625.5    3.981      68.224
2015    4        1    11  45    5.6722   625.8    3.975      68.242
2015    4        1    11  50    5.6687   626.1    3.969      68.260
2015    4        1    11  56    5.6653   626.4    3.963      68.277
2015    4        1    12   2    5.6619   626.7    3.957      68.294
2015    4        1    12   8    5.6584   627.0    3.951      68.312
2015    4        1    12  14    5.6550   627.3    3.946      68.329
2015    4        1    12  19    5.6516   627.6    3.940      68.347
2015    4        1    12  25    5.6482   627.9    3.934      68.364
2015    4        1    12  31    5.6448   628.2    3.929      68.381
2015    4        1    12  37    5.6413   628.5    3.923      68.399
2015    4        1    12  43    5.6379   628.8    3.917      68.416
2015    4        1    12  48    5.6345   629.0    3.912      68.434
2015    4        1    12  54    5.6311   629.3    3.906      68.452
2015    4        1    13   0    5.6277   629.6    3.901      68.469
2015    4        1    13   6    5.6243   629.9    3.895      68.487
2015    4        1    13  12    5.6208   630.2    3.890      68.505
2015    4        1    13  17    5.6174   630.5    3.884      68.523
2015    4        1    13  23    5.6140   630.8    3.879      68.541
2015    4        1    13  29    5.6106   631.0    3.874      68.560
2015    4        1    13  35    5.6071   631.3    3.868      68.578
2015    4        1    13  41    5.6037   631.6    3.863      68.596
2015    4        1    13  46    5.6002   631.9    3.858      68.614
2015    4        1    13  52    5.5968   632.2    3.852      68.632
2015    4        1    13  58    5.5933   632.5    3.847      68.649
2015    4        1    14   4    5.5898   632.7    3.842      68.667
2015    4        1    14  10    5.5863   633.0    3.837      68.684
2015    4        1    14  15    5.5828   633.3    3.831      68.702
2015    4        1    14  21    5.5793   633.6    3.826      68.719
2015    4        1    14  27    5.5758   633.9    3.821      68.736
2015    4        1    14  33    5.5723   634.1    3.815      68.752
2015    4        1    14  39    5.5688   634.4    3.810      68.768
2015    4        1    14  44    5.5653   634.7    3.805      68.784
2015    4        1    14  50    5.5617   635.0    3.800      68.800
2015    4        1    14  56    5.5582   635.3    3.794      68.816
2015    4        1    15   2    5.5547   635.5    3.789      68.831
2015    4        1    15   8    5.5512   635.8    3.784      68.847
2015    4        1    15  13    5.5477   636.1    3.779      68.862
2015    4        1    15  19    5.5442   636.3    3.773      68.877
2015    4        1    15  25    5.5407   636.6    3.768      68.892
2015    4        1    15  31    5.5371   636.9    3.763      68.907
2015    4        1    15  37    5.5337   637.1    3.758      68.922
2015    4        1    15  42    5.5302   637.4    3.753      68.937
2015    4        1    15  48    5.5267   637.7    3.748      68.952
2015    4        1    15  54    5.5232   637.9    3.742      68.967
2015    4        1    16   0    5.5198   638.2    3.737      68.982
2015    4        1    16   6    5.5163   638.5    3.732      68.997
2015    4        1    16  11    5.5129   638.7    3.727      69.012
2015    4        1    16  17    5.5094   639.0    3.722      69.027
2015    4        1    16  23    5.5060   639.3    3.718      69.042
2015    4        1    16  29    5.5026   639.5    3.713      69.058
2015    4        1    16  35    5.4992   639.8    3.708      69.072
2015    4        1    16  40    5.4957   640.0    3.703      69.087
2015    4        1    16  46    5.4923   640.3    3.698      69.102
2015    4        1    16  52    5.4889   640.6    3.693      69.116
2015    4        1    16  58    5.4855   640.8    3.688      69.130
2015    4        1    17   4    5.4822   641.1    3.684      69.144
2015    4        1    17   9    5.4788   641.3    3.679      69.157
2015    4        1    17  15    5.4754   641.6    3.674      69.170
2015    4        1    17  21    5.4721   641.8    3.669      69.182
2015    4        1    17  27    5.4687   642.1    3.664      69.195
2015    4        1    17  33    5.4653   642.3    3.659      69.206
2015    4        1    17  38    5.4620   642.6    3.655      69.218
2015    4        1    17  44    5.4586   642.8    3.650      69.229
2015    4        1    17  50    5.4553   643.1    3.645      69.239
2015    4        1    17  56    5.4519   643.3    3.640      69.250
2015    4        1    18   2    5.4486   643.6    3.635      69.260
2015    4        1    18   7    5.4452   643.8    3.630      69.270
2015    4        1    18  13    5.4419   644.1    3.626      69.279
2015    4        1    18  19    5.4386   644.3    3.621      69.289
2015    4        1    18  25    5.4353   644.6    3.616      69.298
2015    4        1    18  31    5.4319   644.8    3.611      69.308
2015    4        1    18  36    5.4286   645.1    3.607      69.317
2015    4        1    18  42    5.4253   645.3    3.602      69.326
2015    4        1    18  48    5.4220   645.6    3.597      69.336
2015    4        1    18  54    5.4187   645.8    3.593      69.345
2015    4        1    19   0    5.4153   646.1    3.588      69.354
2015    4        1    19   5    5.4120   646.3    3.583      69.364
2015    4        1    19  11    5.4087   646.5    3.579      69.374
2015    4        1    19  17    5.4054   646.8    3.574      69.383
2015    4        1    19  23    5.4021   647.0    3.570      69.393
2015    4        1    19  29    5.3988   647.3    3.565      69.403
2015    4        1    19  35    5.3955   647.5    3.561      69.414
2015    4        1    19  40    5.3922   647.7    3.556      69.424
2015    4        1    19  46    5.3889   648.0    3.552      69.435
2015    4        1    19  52    5.3856   648.2    3.548      69.446
2015    4        1    19  58    5.3823   648.5    3.543      69.457
2015    4        1    20   4    5.3790   648.7    3.539      69.468
2015    4        1    20   9    5.3757   648.9    3.535      69.479
2015    4        1    20  15    5.3723   649.2    3.530      69.490
2015    4        1    20  21    5.3690   649.4    3.526      69.501
2015    4        1    20  27    5.3657   649.6    3.522      69.513
2015    4        1    20  33    5.3624   649.9    3.518      69.524
2015    4        1    20  38    5.3591   650.1    3.514      69.535
2015    4        1    20  44    5.3558   650.3    3.509      69.547
2015    4        1    20  50    5.3525   650.5    3.505      69.558
2015    4        1    20  56    5.3491   650.8    3.501      69.569
2015    4        1    21   2    5.3458   651.0    3.497      69.581
2015    4        1    21   7    5.3425   651.2    3.493      69.592
2015    4        1    21  13    5.3392   651.5    3.489      69.603
2015    4        1    21  19    5.3359   651.7    3.485      69.614
2015    4        1    21  25    5.3326   651.9    3.480      69.625
2015    4        1    21  31    5.3293   652.1    3.476      69.636
2015    4        1    21  36    5.3259   652.3    3.472      69.647
2015    4        1    21  42    5.3226   652.6    3.468      69.657
2015    4        1    21  48    5.3193   652.8    3.464      69.667
2015    4        1    21  54    5.3160   653.0    3.460      69.677
2015    4        1    22   0    5.3127   653.2    3.456      69.687
2015    4        1    22   5    5.3095   653.4    3.452      69.697
2015    4        1    22  11    5.3062   653.7    3.448      69.706
2015    4        1    22  17    5.3029   653.9    3.444      69.716
2015    4        1    22  23    5.2996   654.1    3.440      69.724
2015    4        1    22  28    5.2964   654.3    3.436      69.733
2015    4        1    22  34    5.2931   654.5    3.432      69.742
2015    4        1    22  40    5.2899   654.7    3.428      69.749
2015    4        1    22  46    5.2866   654.9    3.424      69.757
2015    4        1    22  52    5.2834   655.1    3.420      69.765
2015    4        1    22  57    5.2802   655.4    3.416      69.772
2015    4        1    23   3    5.2770   655.6    3.412      69.779
2015    4        1    23   9    5.2737   655.8    3.408      69.785
2015    4        1    23  15    5.2705   656.0    3.404      69.791
2015    4        1    23  21    5.2673   656.2    3.400      69.797
2015    4        1    23  26    5.2641   656.4    3.396      69.802
2015    4        1    23  32    5.2610   656.6    3.392      69.807
2015    4        1    23  38    5.2578   656.8    3.388      69.812
2015    4        1    23  44    5.2546   657.0    3.384      69.817
2015    4        1    23  50    5.2515   657.2    3.380      69.821
2015    4        1    23  55    5.2483   657.4    3.376      69.825
2015    4        2     0   1    5.2452   657.6    3.373      69.828
2015    4        2     0   7    5.2420   657.8    3.369      69.832
2015    4        2     0  13    5.2389   658.0    3.365      69.835
2015    4        2     0  19    5.2358   658.2    3.361      69.837
2015    4        2     0  24    5.2326   658.4    3.357      69.840
2015    4        2     0  30    5.2295   658.6    3.353      69.843
2015    4        2     0  36    5.2264   658.8    3.350      69.845
2015    4        2     0  42    5.2233   659.0    3.346      69.847
2015    4        2     0  48    5.2202   659.2    3.342      69.850
2015    4        2     0  54    5.2171   659.3    3.338      69.852
2015    4        2     0  59    5.2140   659.5    3.334      69.854
2015    4        2     1   5    5.2109   659.7    3.331      69.856
2015    4        2     1  11    5.2078   659.9    3.327      69.858
2015    4        2     1  17    5.2047   660.1    3.323      69.860
2015    4        2     1  23    5.2016   660.3    3.320      69.862
2015    4        2     1  28    5.1986   660.5    3.316      69.865
2015    4        2     1  34    5.1955   660.7    3.312      69.867
2015    4        2     1  40    5.1924   660.9    3.309      69.870
2015    4        2     1  46    5.1894   661.0    3.305      69.873
2015    4        2     1  52    5.1863   661.2    3.302      69.876
2015    4        2     1  57    5.1833   661.4    3.298      69.879
2015    4        2     2   3    5.1802   661.6    3.295      69.882
2015    4        2     2   9    5.1772   661.8    3.291      69.886
2015    4        2     2  15    5.1741   662.0    3.288      69.890
2015    4        2     2  21    5.1711   662.1    3.284      69.894
2015    4        2     2  26    5.1681   662.3    3.281      69.898
2015    4        2     2  32    5.1650   662.5    3.277      69.902
2015    4        2     2  38    5.1620   662.7    3.274      69.907
2015    4        2     2  44    5.1590   662.9    3.271      69.912
2015    4        2     2  50    5.1560   663.0    3.267      69.917
2015    4        2     2  55    5.1529   663.2    3.264      69.922
2015    4        2     3   1    5.1499   663.4    3.261      69.928
2015    4        2     3   7    5.1469   663.6    3.258      69.933
2015    4        2     3  13    5.1439   663.8    3.254      69.939
2015    4        2     3  19    5.1409   663.9    3.251      69.945
2015    4        2     3  24    5.1379   664.1    3.248      69.951
2015    4        2     3  30    5.1349   664.3    3.245      69.957
2015    4        2     3  36    5.1319   664.4    3.242      69.963
2015    4        2     3  42    5.1290   664.6    3.239      69.969
2015    4        2     3  48    5.1260   664.8    3.236      69.976
2015    4        2     3  53    5.1230   665.0    3.232      69.982
2015    4        2     3  59    5.1200   665.1    3.229      69.988
2015    4        2     4   5    5.1170   665.3    3.226      69.994
2015    4        2     4  11    5.1141   665.5    3.223      70.000
