year    month   day   hour  minute  B_enl V_enl   n_enl       T_enl
[year] [month] [day] [hour][minute] [nT]  [km/s]  [cm-3]      [kK]
2015    4        2     0   0    5.0689   654.9    3.397      70.701
2015    4        2     0   6    5.0668   655.1    3.393      70.709
2015    4        2     0  12    5.0646   655.3    3.390      70.717
2015    4        2     0  18    5.0625   655.4    3.387      70.725
2015    4        2     0  24    5.0603   655.6    3.384      70.733
2015    4        2     0  30    5.0582   655.8    3.381      70.741
2015    4        2     0  35    5.0561   655.9    3.378      70.749
2015    4        2     0  41    5.0539   656.1    3.375      70.757
2015    4        2     0  47    5.0518   656.2    3.372      70.765
2015    4        2     0  53    5.0497   656.4    3.369      70.774
2015    4        2     0  59    5.0476   656.6    3.366      70.782
2015    4        2     1   5    5.0455   656.7    3.363      70.790
2015    4        2     1  10    5.0434   656.9    3.360      70.798
2015    4        2     1  16    5.0413   657.0    3.357      70.807
2015    4        2     1  22    5.0391   657.2    3.354      70.815
2015    4        2     1  28    5.0370   657.4    3.351      70.823
2015    4        2     1  34    5.0349   657.5    3.348      70.831
2015    4        2     1  40    5.0328   657.7    3.345      70.839
2015    4        2     1  46    5.0306   657.8    3.342      70.847
2015    4        2     1  51    5.0285   658.0    3.340      70.855
2015    4        2     1  57    5.0264   658.1    3.337      70.863
2015    4        2     2   3    5.0242   658.3    3.334      70.870
2015    4        2     2   9    5.0221   658.4    3.331      70.878
2015    4        2     2  15    5.0200   658.6    3.328      70.886
2015    4        2     2  21    5.0178   658.7    3.325      70.894
2015    4        2     2  26    5.0157   658.9    3.322      70.901
2015    4        2     2  32    5.0136   659.0    3.319      70.909
2015    4        2     2  38    5.0114   659.2    3.316      70.917
2015    4        2     2  44    5.0093   659.3    3.313      70.925
2015    4        2     2  50    5.0072   659.5    3.310      70.934
2015    4        2     2  56    5.0050   659.6    3.308      70.942
2015    4        2     3   1    5.0029   659.8    3.305      70.950
2015    4        2     3   7    5.0008   659.9    3.302      70.959
2015    4        2     3  13    4.9987   660.1    3.299      70.967
2015    4        2     3  19    4.9966   660.2    3.296      70.976
2015    4        2     3  25    4.9944   660.4    3.294      70.985
2015    4        2     3  31    4.9923   660.5    3.291      70.994
2015    4        2     3  37    4.9902   660.7    3.288      71.003
2015    4        2     3  42    4.9881   660.8    3.286      71.012
2015    4        2     3  48    4.9859   661.0    3.283      71.020
2015    4        2     3  54    4.9838   661.1    3.280      71.029
2015    4        2     4   0    4.9817   661.3    3.278      71.038
2015    4        2     4   6    4.9796   661.4    3.275      71.046
2015    4        2     4  12    4.9774   661.6    3.272      71.055
2015    4        2     4  17    4.9753   661.7    3.270      71.063
2015    4        2     4  23    4.9732   661.9    3.267      71.070
2015    4        2     4  29    4.9710   662.0    3.264      71.078
2015    4        2     4  35    4.9689   662.1    3.262      71.085
2015    4        2     4  41    4.9668   662.3    3.259      71.092
2015    4        2     4  47    4.9646   662.4    3.256      71.099
2015    4        2     4  52    4.9625   662.6    3.254      71.106
2015    4        2     4  58    4.9604   662.7    3.251      71.112
2015    4        2     5   4    4.9582   662.8    3.248      71.118
2015    4        2     5  10    4.9561   663.0    3.246      71.124
2015    4        2     5  16    4.9540   663.1    3.243      71.129
2015    4        2     5  22    4.9519   663.3    3.240      71.135
2015    4        2     5  28    4.9498   663.4    3.238      71.140
2015    4        2     5  33    4.9477   663.5    3.235      71.145
2015    4        2     5  39    4.9456   663.7    3.232      71.150
2015    4        2     5  45    4.9435   663.8    3.230      71.155
2015    4        2     5  51    4.9414   663.9    3.227      71.160
2015    4        2     5  57    4.9394   664.1    3.225      71.165
2015    4        2     6   3    4.9373   664.2    3.222      71.170
2015    4        2     6   8    4.9352   664.3    3.220      71.175
2015    4        2     6  14    4.9332   664.5    3.217      71.179
2015    4        2     6  20    4.9311   664.6    3.214      71.184
2015    4        2     6  26    4.9291   664.7    3.212      71.188
2015    4        2     6  32    4.9271   664.9    3.209      71.193
2015    4        2     6  38    4.9250   665.0    3.207      71.197
2015    4        2     6  43    4.9230   665.1    3.204      71.201
2015    4        2     6  49    4.9210   665.3    3.202      71.205
2015    4        2     6  55    4.9189   665.4    3.199      71.208
2015    4        2     7   1    4.9169   665.5    3.197      71.212
2015    4        2     7   7    4.9149   665.7    3.194      71.215
2015    4        2     7  13    4.9128   665.8    3.192      71.218
2015    4        2     7  19    4.9108   665.9    3.189      71.221
2015    4        2     7  24    4.9088   666.0    3.187      71.224
2015    4        2     7  30    4.9067   666.2    3.184      71.227
2015    4        2     7  36    4.9047   666.3    3.181      71.229
2015    4        2     7  42    4.9027   666.4    3.179      71.231
2015    4        2     7  48    4.9006   666.5    3.176      71.234
2015    4        2     7  54    4.8986   666.7    3.174      71.236
2015    4        2     7  59    4.8966   666.8    3.171      71.238
2015    4        2     8   5    4.8945   666.9    3.169      71.240
2015    4        2     8  11    4.8925   667.0    3.166      71.242
2015    4        2     8  17    4.8905   667.1    3.164      71.245
2015    4        2     8  23    4.8885   667.3    3.161      71.247
2015    4        2     8  29    4.8864   667.4    3.159      71.250
2015    4        2     8  34    4.8844   667.5    3.156      71.253
2015    4        2     8  40    4.8824   667.6    3.154      71.255
2015    4        2     8  46    4.8804   667.7    3.151      71.259
2015    4        2     8  52    4.8784   667.9    3.149      71.262
2015    4        2     8  58    4.8764   668.0    3.146      71.265
2015    4        2     9   4    4.8744   668.1    3.144      71.269
2015    4        2     9  10    4.8724   668.2    3.142      71.273
2015    4        2     9  15    4.8704   668.3    3.139      71.277
2015    4        2     9  21    4.8684   668.5    3.137      71.281
2015    4        2     9  27    4.8663   668.6    3.135      71.285
2015    4        2     9  33    4.8643   668.7    3.132      71.289
2015    4        2     9  39    4.8623   668.8    3.130      71.293
2015    4        2     9  45    4.8603   668.9    3.128      71.297
2015    4        2     9  50    4.8583   669.0    3.126      71.301
2015    4        2     9  56    4.8562   669.2    3.123      71.305
2015    4        2    10   2    4.8542   669.3    3.121      71.309
2015    4        2    10   8    4.8522   669.4    3.119      71.313
2015    4        2    10  14    4.8501   669.5    3.116      71.317
2015    4        2    10  20    4.8481   669.6    3.114      71.320
2015    4        2    10  25    4.8460   669.7    3.112      71.324
2015    4        2    10  31    4.8440   669.8    3.110      71.327
2015    4        2    10  37    4.8420   670.0    3.107      71.330
2015    4        2    10  43    4.8399   670.1    3.105      71.333
2015    4        2    10  49    4.8379   670.2    3.103      71.336
2015    4        2    10  55    4.8358   670.3    3.101      71.339
2015    4        2    11   1    4.8338   670.4    3.099      71.342
2015    4        2    11   6    4.8318   670.5    3.096      71.345
2015    4        2    11  12    4.8297   670.6    3.094      71.348
2015    4        2    11  18    4.8277   670.7    3.092      71.351
2015    4        2    11  24    4.8257   670.8    3.090      71.353
2015    4        2    11  30    4.8237   670.9    3.088      71.356
2015    4        2    11  36    4.8217   671.1    3.086      71.359
2015    4        2    11  41    4.8197   671.2    3.083      71.362
2015    4        2    11  47    4.8177   671.3    3.081      71.364
2015    4        2    11  53    4.8157   671.4    3.079      71.367
2015    4        2    11  59    4.8137   671.5    3.077      71.369
2015    4        2    12   5    4.8117   671.6    3.075      71.371
2015    4        2    12  11    4.8097   671.7    3.073      71.374
2015    4        2    12  16    4.8078   671.8    3.071      71.376
2015    4        2    12  22    4.8058   671.9    3.069      71.378
2015    4        2    12  28    4.8038   672.0    3.067      71.380
2015    4        2    12  34    4.8019   672.1    3.065      71.381
2015    4        2    12  40    4.7999   672.2    3.063      71.383
2015    4        2    12  46    4.7979   672.3    3.061      71.384
2015    4        2    12  51    4.7960   672.4    3.059      71.385
2015    4        2    12  57    4.7940   672.5    3.057      71.385
2015    4        2    13   3    4.7921   672.6    3.055      71.386
2015    4        2    13   9    4.7901   672.7    3.053      71.386
2015    4        2    13  15    4.7882   672.8    3.050      71.386
2015    4        2    13  21    4.7863   672.9    3.048      71.386
2015    4        2    13  27    4.7843   673.0    3.046      71.385
2015    4        2    13  32    4.7824   673.1    3.044      71.385
2015    4        2    13  38    4.7805   673.2    3.042      71.384
2015    4        2    13  44    4.7785   673.3    3.040      71.383
2015    4        2    13  50    4.7766   673.4    3.038      71.382
2015    4        2    13  56    4.7747   673.5    3.036      71.381
2015    4        2    14   2    4.7728   673.6    3.034      71.380
2015    4        2    14   7    4.7709   673.7    3.032      71.379
2015    4        2    14  13    4.7690   673.8    3.030      71.378
2015    4        2    14  19    4.7671   673.8    3.028      71.377
2015    4        2    14  25    4.7652   673.9    3.026      71.376
2015    4        2    14  31    4.7634   674.0    3.024      71.375
2015    4        2    14  37    4.7615   674.1    3.022      71.374
2015    4        2    14  42    4.7596   674.2    3.019      71.373
2015    4        2    14  48    4.7577   674.3    3.017      71.372
2015    4        2    14  54    4.7559   674.4    3.015      71.371
2015    4        2    15   0    4.7540   674.5    3.013      71.371
2015    4        2    15   6    4.7521   674.6    3.011      71.370
2015    4        2    15  12    4.7503   674.7    3.009      71.369
2015    4        2    15  18    4.7484   674.7    3.007      71.368
2015    4        2    15  23    4.7465   674.8    3.005      71.368
2015    4        2    15  29    4.7446   674.9    3.004      71.367
2015    4        2    15  35    4.7428   675.0    3.002      71.366
2015    4        2    15  41    4.7409   675.1    3.000      71.365
2015    4        2    15  47    4.7390   675.2    2.998      71.364
2015    4        2    15  53    4.7371   675.3    2.996      71.364
2015    4        2    15  58    4.7353   675.3    2.994      71.363
2015    4        2    16   4    4.7334   675.4    2.992      71.362
2015    4        2    16  10    4.7315   675.5    2.990      71.361
2015    4        2    16  16    4.7296   675.6    2.988      71.360
2015    4        2    16  22    4.7277   675.7    2.986      71.359
2015    4        2    16  28    4.7258   675.8    2.984      71.358
2015    4        2    16  33    4.7239   675.8    2.982      71.357
2015    4        2    16  39    4.7220   675.9    2.980      71.356
2015    4        2    16  45    4.7202   676.0    2.978      71.355
2015    4        2    16  51    4.7183   676.1    2.977      71.354
2015    4        2    16  57    4.7164   676.2    2.975      71.353
2015    4        2    17   3    4.7145   676.2    2.973      71.352
2015    4        2    17   9    4.7126   676.3    2.971      71.351
2015    4        2    17  14    4.7107   676.4    2.969      71.350
2015    4        2    17  20    4.7088   676.5    2.967      71.350
2015    4        2    17  26    4.7069   676.6    2.966      71.349
2015    4        2    17  32    4.7050   676.6    2.964      71.348
2015    4        2    17  38    4.7032   676.7    2.962      71.347
2015    4        2    17  44    4.7013   676.8    2.960      71.346
2015    4        2    17  49    4.6994   676.9    2.959      71.345
2015    4        2    17  55    4.6975   676.9    2.957      71.344
2015    4        2    18   1    4.6956   677.0    2.955      71.343
2015    4        2    18   7    4.6938   677.1    2.953      71.342
2015    4        2    18  13    4.6919   677.2    2.952      71.341
2015    4        2    18  19    4.6900   677.2    2.950      71.340
2015    4        2    18  24    4.6881   677.3    2.948      71.338
2015    4        2    18  30    4.6863   677.4    2.947      71.337
2015    4        2    18  36    4.6844   677.5    2.945      71.335
2015    4        2    18  42    4.6825   677.5    2.943      71.334
2015    4        2    18  48    4.6807   677.6    2.942      71.332
2015    4        2    18  54    4.6788   677.7    2.940      71.330
2015    4        2    19   0    4.6770   677.7    2.938      71.327
2015    4        2    19   5    4.6751   677.8    2.937      71.325
2015    4        2    19  11    4.6733   677.9    2.935      71.322
2015    4        2    19  17    4.6714   678.0    2.934      71.320
2015    4        2    19  23    4.6696   678.0    2.932      71.317
2015    4        2    19  29    4.6678   678.1    2.930      71.314
2015    4        2    19  35    4.6659   678.2    2.929      71.311
2015    4        2    19  40    4.6641   678.2    2.927      71.308
2015    4        2    19  46    4.6623   678.3    2.925      71.305
2015    4        2    19  52    4.6605   678.4    2.924      71.301
2015    4        2    19  58    4.6587   678.4    2.922      71.298
2015    4        2    20   4    4.6569   678.5    2.921      71.295
2015    4        2    20  10    4.6551   678.5    2.919      71.291
2015    4        2    20  15    4.6534   678.6    2.917      71.287
2015    4        2    20  21    4.6516   678.7    2.916      71.284
2015    4        2    20  27    4.6498   678.7    2.914      71.280
2015    4        2    20  33    4.6480   678.8    2.913      71.277
2015    4        2    20  39    4.6463   678.9    2.911      71.273
2015    4        2    20  45    4.6445   678.9    2.909      71.269
2015    4        2    20  51    4.6428   679.0    2.908      71.266
2015    4        2    20  56    4.6410   679.0    2.906      71.262
2015    4        2    21   2    4.6393   679.1    2.905      71.258
2015    4        2    21   8    4.6376   679.2    2.903      71.255
2015    4        2    21  14    4.6358   679.2    2.902      71.251
2015    4        2    21  20    4.6341   679.3    2.900      71.248
2015    4        2    21  26    4.6324   679.3    2.898      71.244
2015    4        2    21  31    4.6307   679.4    2.897      71.240
2015    4        2    21  37    4.6290   679.4    2.895      71.237
2015    4        2    21  43    4.6273   679.5    2.894      71.233
2015    4        2    21  49    4.6256   679.6    2.892      71.230
2015    4        2    21  55    4.6238   679.6    2.891      71.227
2015    4        2    22   1    4.6221   679.7    2.889      71.223
2015    4        2    22   6    4.6204   679.7    2.888      71.220
2015    4        2    22  12    4.6187   679.8    2.886      71.216
2015    4        2    22  18    4.6170   679.8    2.885      71.213
2015    4        2    22  24    4.6153   679.9    2.883      71.210
2015    4        2    22  30    4.6136   679.9    2.882      71.206
2015    4        2    22  36    4.6119   680.0    2.880      71.203
2015    4        2    22  42    4.6102   680.0    2.879      71.200
2015    4        2    22  47    4.6085   680.1    2.877      71.196
2015    4        2    22  53    4.6068   680.1    2.876      71.193
2015    4        2    22  59    4.6051   680.2    2.874      71.189
2015    4        2    23   5    4.6034   680.2    2.873      71.186
2015    4        2    23  11    4.6017   680.3    2.871      71.183
2015    4        2    23  17    4.6000   680.3    2.870      71.179
2015    4        2    23  22    4.5983   680.4    2.868      71.176
2015    4        2    23  28    4.5966   680.4    2.867      71.172
2015    4        2    23  34    4.5949   680.5    2.865      71.168
2015    4        2    23  40    4.5932   680.5    2.864      71.165
2015    4        2    23  46    4.5915   680.6    2.862      71.161
2015    4        2    23  52    4.5898   680.6    2.861      71.157
2015    4        2    23  57    4.5881   680.7    2.860      71.153
2015    4        3     0   3    4.5863   680.7    2.858      71.149
2015    4        3     0   9    4.5846   680.8    2.857      71.145
2015    4        3     0  15    4.5829   680.8    2.855      71.140
2015    4        3     0  21    4.5812   680.9    2.854      71.136
2015    4        3     0  27    4.5795   680.9    2.853      71.131
2015    4        3     0  33    4.5778   681.0    2.851      71.127
2015    4        3     0  38    4.5761   681.0    2.850      71.122
2015    4        3     0  44    4.5744   681.0    2.848      71.117
2015    4        3     0  50    4.5727   681.1    2.847      71.112
2015    4        3     0  56    4.5710   681.1    2.846      71.106
2015    4        3     1   2    4.5693   681.2    2.844      71.101
2015    4        3     1   8    4.5676   681.2    2.843      71.095
2015    4        3     1  13    4.5659   681.3    2.842      71.090
2015    4        3     1  19    4.5642   681.3    2.840      71.084
2015    4        3     1  25    4.5625   681.3    2.839      71.078
2015    4        3     1  31    4.5608   681.4    2.838      71.071
2015    4        3     1  37    4.5591   681.4    2.836      71.065
2015    4        3     1  43    4.5575   681.5    2.835      71.059
2015    4        3     1  48    4.5558   681.5    2.834      71.052
2015    4        3     1  54    4.5541   681.5    2.832      71.045
2015    4        3     2   0    4.5525   681.6    2.831      71.038
2015    4        3     2   6    4.5508   681.6    2.830      71.031
2015    4        3     2  12    4.5492   681.6    2.828      71.024
2015    4        3     2  18    4.5475   681.7    2.827      71.016
2015    4        3     2  23    4.5459   681.7    2.826      71.009
2015    4        3     2  29    4.5443   681.7    2.825      71.001
2015    4        3     2  35    4.5426   681.8    2.823      70.994
2015    4        3     2  41    4.5410   681.8    2.822      70.986
2015    4        3     2  47    4.5394   681.8    2.821      70.978
2015    4        3     2  53    4.5378   681.9    2.820      70.970
2015    4        3     2  59    4.5362   681.9    2.818      70.962
2015    4        3     3   4    4.5346   681.9    2.817      70.954
2015    4        3     3  10    4.5330   682.0    2.816      70.946
2015    4        3     3  16    4.5314   682.0    2.815      70.938
2015    4        3     3  22    4.5298   682.0    2.813      70.930
2015    4        3     3  28    4.5282   682.1    2.812      70.923
2015    4        3     3  34    4.5267   682.1    2.811      70.915
2015    4        3     3  39    4.5251   682.1    2.810      70.907
2015    4        3     3  45    4.5236   682.1    2.808      70.900
2015    4        3     3  51    4.5220   682.2    2.807      70.892
2015    4        3     3  57    4.5205   682.2    2.806      70.885
2015    4        3     4   3    4.5190   682.2    2.805      70.877
2015    4        3     4   9    4.5174   682.3    2.804      70.870
2015    4        3     4  14    4.5159   682.3    2.802      70.863
2015    4        3     4  20    4.5144   682.3    2.801      70.856
