year    month   day   hour  minute  B_enl V_enl   n_enl       T_enl
[year] [month] [day] [hour][minute] [nT]  [km/s]  [cm-3]      [kK]
2015    4        1     0   5    6.1198   584.8    4.739      64.602
2015    4        1     0  10    6.1165   585.1    4.732      64.627
2015    4        1     0  16    6.1132   585.4    4.725      64.653
2015    4        1     0  22    6.1099   585.8    4.719      64.679
2015    4        1     0  28    6.1066   586.1    4.712      64.706
2015    4        1     0  33    6.1033   586.4    4.705      64.732
2015    4        1     0  39    6.1000   586.7    4.698      64.759
2015    4        1     0  45    6.0968   587.0    4.692      64.786
2015    4        1     0  50    6.0935   587.3    4.685      64.813
2015    4        1     0  56    6.0903   587.6    4.678      64.840
2015    4        1     1   2    6.0870   587.9    4.672      64.867
2015    4        1     1   8    6.0838   588.2    4.665      64.895
2015    4        1     1  13    6.0806   588.5    4.659      64.922
2015    4        1     1  19    6.0774   588.8    4.653      64.950
2015    4        1     1  25    6.0742   589.1    4.646      64.978
2015    4        1     1  30    6.0710   589.5    4.640      65.005
2015    4        1     1  36    6.0678   589.8    4.633      65.033
2015    4        1     1  42    6.0646   590.1    4.627      65.061
2015    4        1     1  48    6.0615   590.4    4.620      65.088
2015    4        1     1  53    6.0583   590.7    4.614      65.116
2015    4        1     1  59    6.0552   591.0    4.607      65.143
2015    4        1     2   5    6.0520   591.3    4.601      65.170
2015    4        1     2  11    6.0489   591.6    4.594      65.197
2015    4        1     2  16    6.0458   591.9    4.588      65.223
2015    4        1     2  22    6.0427   592.2    4.581      65.250
2015    4        1     2  28    6.0396   592.5    4.575      65.276
2015    4        1     2  33    6.0365   592.8    4.568      65.302
2015    4        1     2  39    6.0334   593.1    4.561      65.328
2015    4        1     2  45    6.0304   593.4    4.555      65.353
2015    4        1     2  51    6.0273   593.7    4.548      65.379
2015    4        1     2  56    6.0243   594.0    4.542      65.404
2015    4        1     3   2    6.0213   594.3    4.535      65.429
2015    4        1     3   8    6.0183   594.6    4.529      65.454
2015    4        1     3  13    6.0153   594.9    4.522      65.479
2015    4        1     3  19    6.0123   595.2    4.515      65.504
2015    4        1     3  25    6.0093   595.5    4.509      65.528
2015    4        1     3  31    6.0063   595.8    4.502      65.553
2015    4        1     3  36    6.0033   596.1    4.496      65.577
2015    4        1     3  42    6.0004   596.4    4.489      65.601
2015    4        1     3  48    5.9974   596.7    4.483      65.626
2015    4        1     3  53    5.9944   597.0    4.476      65.650
2015    4        1     3  59    5.9915   597.3    4.470      65.674
2015    4        1     4   5    5.9885   597.6    4.463      65.698
2015    4        1     4  11    5.9856   597.9    4.457      65.722
2015    4        1     4  16    5.9826   598.2    4.450      65.745
2015    4        1     4  22    5.9797   598.5    4.444      65.769
2015    4        1     4  28    5.9767   598.8    4.437      65.793
2015    4        1     4  34    5.9738   599.1    4.431      65.816
2015    4        1     4  39    5.9708   599.4    4.425      65.840
2015    4        1     4  45    5.9679   599.7    4.418      65.864
2015    4        1     4  51    5.9649   600.0    4.412      65.887
2015    4        1     4  56    5.9620   600.3    4.406      65.911
2015    4        1     5   2    5.9591   600.6    4.399      65.935
2015    4        1     5   8    5.9562   600.9    4.393      65.958
2015    4        1     5  14    5.9532   601.2    4.387      65.982
2015    4        1     5  19    5.9503   601.5    4.381      66.006
2015    4        1     5  25    5.9474   601.8    4.374      66.030
2015    4        1     5  31    5.9445   602.1    4.368      66.054
2015    4        1     5  36    5.9416   602.4    4.362      66.079
2015    4        1     5  42    5.9387   602.7    4.356      66.103
2015    4        1     5  48    5.9359   603.0    4.350      66.128
2015    4        1     5  54    5.9330   603.2    4.344      66.152
2015    4        1     5  59    5.9301   603.5    4.338      66.177
2015    4        1     6   5    5.9272   603.8    4.332      66.202
2015    4        1     6  11    5.9244   604.1    4.326      66.228
2015    4        1     6  17    5.9215   604.4    4.320      66.253
2015    4        1     6  22    5.9187   604.7    4.315      66.279
2015    4        1     6  28    5.9158   605.0    4.309      66.305
2015    4        1     6  34    5.9130   605.3    4.303      66.331
2015    4        1     6  39    5.9101   605.6    4.297      66.357
2015    4        1     6  45    5.9073   605.9    4.292      66.384
2015    4        1     6  51    5.9045   606.2    4.286      66.410
2015    4        1     6  57    5.9016   606.5    4.280      66.437
2015    4        1     7   2    5.8988   606.8    4.275      66.464
2015    4        1     7   8    5.8960   607.0    4.269      66.491
2015    4        1     7  14    5.8932   607.3    4.264      66.519
2015    4        1     7  19    5.8903   607.6    4.258      66.546
2015    4        1     7  25    5.8875   607.9    4.253      66.574
2015    4        1     7  31    5.8847   608.2    4.247      66.602
2015    4        1     7  37    5.8819   608.5    4.242      66.629
2015    4        1     7  42    5.8791   608.8    4.237      66.657
2015    4        1     7  48    5.8763   609.1    4.231      66.685
2015    4        1     7  54    5.8735   609.4    4.226      66.713
2015    4        1     7  59    5.8707   609.6    4.221      66.741
2015    4        1     8   5    5.8679   609.9    4.215      66.769
2015    4        1     8  11    5.8652   610.2    4.210      66.796
2015    4        1     8  17    5.8624   610.5    4.205      66.824
2015    4        1     8  22    5.8596   610.8    4.199      66.852
2015    4        1     8  28    5.8568   611.1    4.194      66.879
2015    4        1     8  34    5.8541   611.4    4.189      66.907
2015    4        1     8  40    5.8513   611.6    4.183      66.934
2015    4        1     8  45    5.8485   611.9    4.178      66.961
2015    4        1     8  51    5.8458   612.2    4.173      66.988
2015    4        1     8  57    5.8430   612.5    4.167      67.014
2015    4        1     9   2    5.8403   612.8    4.162      67.041
2015    4        1     9   8    5.8375   613.1    4.157      67.067
2015    4        1     9  14    5.8348   613.3    4.151      67.093
2015    4        1     9  20    5.8321   613.6    4.146      67.119
2015    4        1     9  25    5.8294   613.9    4.141      67.144
2015    4        1     9  31    5.8266   614.2    4.135      67.169
2015    4        1     9  37    5.8239   614.5    4.130      67.194
2015    4        1     9  42    5.8212   614.7    4.124      67.219
2015    4        1     9  48    5.8185   615.0    4.119      67.243
2015    4        1     9  54    5.8158   615.3    4.114      67.268
2015    4        1    10   0    5.8131   615.6    4.108      67.292
2015    4        1    10   5    5.8104   615.9    4.103      67.315
2015    4        1    10  11    5.8077   616.1    4.097      67.339
2015    4        1    10  17    5.8050   616.4    4.092      67.362
2015    4        1    10  22    5.8023   616.7    4.086      67.385
2015    4        1    10  28    5.7996   617.0    4.081      67.408
2015    4        1    10  34    5.7969   617.3    4.076      67.431
2015    4        1    10  40    5.7942   617.5    4.070      67.454
2015    4        1    10  45    5.7915   617.8    4.065      67.476
2015    4        1    10  51    5.7888   618.1    4.059      67.499
2015    4        1    10  57    5.7862   618.4    4.054      67.521
2015    4        1    11   3    5.7835   618.7    4.049      67.543
2015    4        1    11   8    5.7808   618.9    4.043      67.565
2015    4        1    11  14    5.7781   619.2    4.038      67.587
2015    4        1    11  20    5.7754   619.5    4.033      67.609
2015    4        1    11  25    5.7727   619.8    4.027      67.631
2015    4        1    11  31    5.7700   620.0    4.022      67.652
2015    4        1    11  37    5.7673   620.3    4.017      67.674
2015    4        1    11  43    5.7645   620.6    4.011      67.695
2015    4        1    11  48    5.7618   620.9    4.006      67.716
2015    4        1    11  54    5.7591   621.1    4.001      67.738
2015    4        1    12   0    5.7564   621.4    3.996      67.759
2015    4        1    12   5    5.7537   621.7    3.990      67.780
2015    4        1    12  11    5.7509   622.0    3.985      67.801
2015    4        1    12  17    5.7482   622.2    3.980      67.822
2015    4        1    12  23    5.7455   622.5    3.975      67.843
2015    4        1    12  28    5.7427   622.8    3.970      67.864
2015    4        1    12  34    5.7400   623.0    3.964      67.884
2015    4        1    12  40    5.7373   623.3    3.959      67.905
2015    4        1    12  46    5.7345   623.6    3.954      67.926
2015    4        1    12  51    5.7318   623.9    3.949      67.947
2015    4        1    12  57    5.7290   624.1    3.944      67.968
2015    4        1    13   3    5.7263   624.4    3.939      67.989
2015    4        1    13   8    5.7236   624.7    3.934      68.010
2015    4        1    13  14    5.7208   624.9    3.929      68.032
2015    4        1    13  20    5.7181   625.2    3.924      68.053
2015    4        1    13  26    5.7154   625.5    3.919      68.075
2015    4        1    13  31    5.7126   625.7    3.914      68.097
2015    4        1    13  37    5.7099   626.0    3.909      68.119
2015    4        1    13  43    5.7072   626.3    3.905      68.141
2015    4        1    13  48    5.7045   626.5    3.900      68.163
2015    4        1    13  54    5.7018   626.8    3.895      68.186
2015    4        1    14   0    5.6990   627.0    3.890      68.209
2015    4        1    14   6    5.6963   627.3    3.886      68.232
2015    4        1    14  11    5.6936   627.6    3.881      68.255
2015    4        1    14  17    5.6909   627.8    3.876      68.278
2015    4        1    14  23    5.6882   628.1    3.872      68.302
2015    4        1    14  28    5.6855   628.4    3.867      68.326
2015    4        1    14  34    5.6828   628.6    3.863      68.350
2015    4        1    14  40    5.6801   628.9    3.858      68.373
2015    4        1    14  46    5.6774   629.1    3.854      68.397
2015    4        1    14  51    5.6747   629.4    3.849      68.421
2015    4        1    14  57    5.6719   629.7    3.845      68.445
2015    4        1    15   3    5.6692   629.9    3.840      68.469
2015    4        1    15   9    5.6665   630.2    3.836      68.493
2015    4        1    15  14    5.6638   630.4    3.831      68.517
2015    4        1    15  20    5.6611   630.7    3.827      68.541
2015    4        1    15  26    5.6584   630.9    3.822      68.565
2015    4        1    15  31    5.6557   631.2    3.818      68.588
2015    4        1    15  37    5.6530   631.5    3.813      68.612
2015    4        1    15  43    5.6503   631.7    3.809      68.635
2015    4        1    15  49    5.6476   632.0    3.805      68.658
2015    4        1    15  54    5.6449   632.2    3.800      68.681
2015    4        1    16   0    5.6422   632.5    3.796      68.704
2015    4        1    16   6    5.6396   632.7    3.791      68.727
2015    4        1    16  11    5.6369   633.0    3.787      68.749
2015    4        1    16  17    5.6342   633.2    3.782      68.772
2015    4        1    16  23    5.6315   633.5    3.778      68.794
2015    4        1    16  29    5.6288   633.7    3.773      68.816
2015    4        1    16  34    5.6262   634.0    3.769      68.838
2015    4        1    16  40    5.6235   634.2    3.765      68.859
2015    4        1    16  46    5.6208   634.5    3.760      68.880
2015    4        1    16  51    5.6182   634.7    3.756      68.901
2015    4        1    16  57    5.6155   635.0    3.751      68.922
2015    4        1    17   3    5.6128   635.2    3.747      68.943
2015    4        1    17   9    5.6102   635.5    3.742      68.963
2015    4        1    17  14    5.6075   635.7    3.738      68.983
2015    4        1    17  20    5.6048   636.0    3.733      69.002
2015    4        1    17  26    5.6022   636.2    3.729      69.022
2015    4        1    17  31    5.5995   636.5    3.724      69.041
2015    4        1    17  37    5.5968   636.7    3.720      69.060
2015    4        1    17  43    5.5942   637.0    3.716      69.079
2015    4        1    17  49    5.5915   637.2    3.711      69.097
2015    4        1    17  54    5.5888   637.4    3.707      69.115
2015    4        1    18   0    5.5862   637.7    3.702      69.133
2015    4        1    18   6    5.5835   637.9    3.698      69.151
2015    4        1    18  12    5.5808   638.2    3.693      69.168
2015    4        1    18  17    5.5781   638.4    3.689      69.185
2015    4        1    18  23    5.5754   638.7    3.684      69.203
2015    4        1    18  29    5.5728   638.9    3.680      69.220
2015    4        1    18  34    5.5701   639.1    3.676      69.237
2015    4        1    18  40    5.5674   639.4    3.671      69.253
2015    4        1    18  46    5.5647   639.6    3.667      69.270
2015    4        1    18  52    5.5620   639.9    3.662      69.287
2015    4        1    18  57    5.5594   640.1    3.658      69.303
2015    4        1    19   3    5.5567   640.3    3.654      69.320
2015    4        1    19   9    5.5540   640.6    3.649      69.337
2015    4        1    19  14    5.5513   640.8    3.645      69.353
2015    4        1    19  20    5.5486   641.1    3.641      69.369
2015    4        1    19  26    5.5459   641.3    3.636      69.386
2015    4        1    19  32    5.5432   641.5    3.632      69.402
2015    4        1    19  37    5.5405   641.8    3.628      69.418
2015    4        1    19  43    5.5378   642.0    3.624      69.435
2015    4        1    19  49    5.5351   642.2    3.619      69.451
2015    4        1    19  55    5.5324   642.5    3.615      69.467
2015    4        1    20   0    5.5297   642.7    3.611      69.483
2015    4        1    20   6    5.5269   642.9    3.607      69.499
2015    4        1    20  12    5.5242   643.2    3.603      69.515
2015    4        1    20  17    5.5215   643.4    3.598      69.531
2015    4        1    20  23    5.5188   643.6    3.594      69.547
2015    4        1    20  29    5.5160   643.9    3.590      69.563
2015    4        1    20  35    5.5133   644.1    3.586      69.578
2015    4        1    20  40    5.5106   644.3    3.582      69.594
2015    4        1    20  46    5.5078   644.5    3.578      69.610
2015    4        1    20  52    5.5051   644.8    3.574      69.626
2015    4        1    20  57    5.5023   645.0    3.569      69.641
2015    4        1    21   3    5.4996   645.2    3.565      69.657
2015    4        1    21   9    5.4968   645.5    3.561      69.673
2015    4        1    21  15    5.4941   645.7    3.557      69.689
2015    4        1    21  20    5.4914   645.9    3.553      69.705
2015    4        1    21  26    5.4886   646.1    3.549      69.722
2015    4        1    21  32    5.4859   646.3    3.546      69.738
2015    4        1    21  38    5.4832   646.6    3.542      69.755
2015    4        1    21  43    5.4804   646.8    3.538      69.771
2015    4        1    21  49    5.4777   647.0    3.534      69.788
2015    4        1    21  55    5.4750   647.2    3.530      69.805
2015    4        1    22   0    5.4723   647.4    3.526      69.823
2015    4        1    22   6    5.4695   647.7    3.523      69.840
2015    4        1    22  12    5.4668   647.9    3.519      69.857
2015    4        1    22  18    5.4641   648.1    3.515      69.875
2015    4        1    22  23    5.4614   648.3    3.511      69.892
2015    4        1    22  29    5.4587   648.5    3.508      69.909
2015    4        1    22  35    5.4560   648.7    3.504      69.927
2015    4        1    22  40    5.4533   649.0    3.500      69.944
2015    4        1    22  46    5.4506   649.2    3.497      69.961
2015    4        1    22  52    5.4479   649.4    3.493      69.978
2015    4        1    22  58    5.4452   649.6    3.490      69.995
2015    4        1    23   3    5.4425   649.8    3.486      70.011
2015    4        1    23   9    5.4397   650.0    3.482      70.027
2015    4        1    23  15    5.4370   650.2    3.479      70.043
2015    4        1    23  20    5.4343   650.4    3.475      70.059
2015    4        1    23  26    5.4316   650.6    3.471      70.074
2015    4        1    23  32    5.4289   650.9    3.468      70.089
2015    4        1    23  38    5.4262   651.1    3.464      70.104
2015    4        1    23  43    5.4235   651.3    3.460      70.118
2015    4        1    23  49    5.4208   651.5    3.457      70.132
2015    4        1    23  55    5.4181   651.7    3.453      70.145
2015    4        2     0   0    5.4154   651.9    3.449      70.158
2015    4        2     0   6    5.4128   652.1    3.446      70.171
2015    4        2     0  12    5.4101   652.3    3.442      70.184
2015    4        2     0  18    5.4074   652.5    3.439      70.196
2015    4        2     0  23    5.4047   652.7    3.435      70.208
2015    4        2     0  29    5.4020   652.9    3.431      70.220
2015    4        2     0  35    5.3994   653.1    3.428      70.232
2015    4        2     0  40    5.3967   653.3    3.424      70.244
2015    4        2     0  46    5.3941   653.5    3.420      70.255
2015    4        2     0  52    5.3914   653.7    3.417      70.266
2015    4        2     0  58    5.3887   653.9    3.413      70.277
2015    4        2     1   3    5.3861   654.1    3.410      70.288
2015    4        2     1   9    5.3834   654.3    3.406      70.299
2015    4        2     1  15    5.3808   654.5    3.402      70.310
2015    4        2     1  21    5.3781   654.7    3.399      70.320
2015    4        2     1  26    5.3755   654.9    3.395      70.331
2015    4        2     1  32    5.3728   655.1    3.392      70.341
2015    4        2     1  38    5.3701   655.3    3.388      70.351
2015    4        2     1  43    5.3675   655.5    3.385      70.362
2015    4        2     1  49    5.3648   655.7    3.381      70.372
2015    4        2     1  55    5.3622   655.8    3.378      70.382
2015    4        2     2   1    5.3595   656.0    3.374      70.392
2015    4        2     2   6    5.3568   656.2    3.371      70.403
2015    4        2     2  12    5.3542   656.4    3.367      70.413
2015    4        2     2  18    5.3515   656.6    3.364      70.423
2015    4        2     2  23    5.3488   656.8    3.360      70.433
2015    4        2     2  29    5.3462   657.0    3.357      70.444
2015    4        2     2  35    5.3435   657.2    3.353      70.454
2015    4        2     2  41    5.3408   657.4    3.350      70.465
2015    4        2     2  46    5.3382   657.5    3.346      70.476
2015    4        2     2  52    5.3355   657.7    3.343      70.487
2015    4        2     2  58    5.3328   657.9    3.339      70.498
2015    4        2     3   4    5.3302   658.1    3.336      70.509
2015    4        2     3   9    5.3275   658.3    3.333      70.520
2015    4        2     3  15    5.3248   658.5    3.329      70.531
2015    4        2     3  21    5.3222   658.6    3.326      70.543
2015    4        2     3  26    5.3195   658.8    3.323      70.555
2015    4        2     3  32    5.3168   659.0    3.320      70.566
2015    4        2     3  38    5.3142   659.2    3.316      70.578
2015    4        2     3  44    5.3115   659.4    3.313      70.590
2015    4        2     3  49    5.3088   659.5    3.310      70.602
