year    month   day   hour  minute  B_enl V_enl   n_enl       T_enl
[year] [month] [day] [hour][minute] [nT]  [km/s]  [cm-3]      [kK]
2014   11        6     0   0    7.4314   543.1    5.471      57.166
2014   11        6     0   4    7.4315   543.3    5.470      57.191
2014   11        6     0   9    7.4317   543.4    5.469      57.216
2014   11        6     0  14    7.4319   543.6    5.468      57.241
2014   11        6     0  19    7.4321   543.8    5.467      57.266
2014   11        6     0  24    7.4323   543.9    5.466      57.290
2014   11        6     0  29    7.4325   544.1    5.465      57.314
2014   11        6     0  34    7.4327   544.2    5.463      57.337
2014   11        6     0  39    7.4329   544.4    5.462      57.361
2014   11        6     0  44    7.4331   544.5    5.461      57.385
2014   11        6     0  49    7.4334   544.7    5.460      57.408
2014   11        6     0  54    7.4336   544.8    5.458      57.432
2014   11        6     0  59    7.4339   545.0    5.457      57.456
2014   11        6     1   4    7.4342   545.1    5.455      57.479
2014   11        6     1   9    7.4344   545.3    5.454      57.503
2014   11        6     1  14    7.4347   545.5    5.453      57.526
2014   11        6     1  19    7.4350   545.6    5.451      57.549
2014   11        6     1  24    7.4354   545.8    5.449      57.572
2014   11        6     1  29    7.4357   545.9    5.448      57.595
2014   11        6     1  34    7.4360   546.1    5.446      57.619
2014   11        6     1  39    7.4364   546.3    5.444      57.642
2014   11        6     1  44    7.4367   546.4    5.443      57.665
2014   11        6     1  49    7.4371   546.6    5.441      57.687
2014   11        6     1  54    7.4374   546.7    5.439      57.710
2014   11        6     1  59    7.4378   546.9    5.437      57.732
2014   11        6     2   4    7.4382   547.1    5.435      57.754
2014   11        6     2   9    7.4385   547.2    5.433      57.776
2014   11        6     2  14    7.4389   547.4    5.431      57.799
2014   11        6     2  19    7.4392   547.6    5.429      57.823
2014   11        6     2  23    7.4395   547.7    5.427      57.846
2014   11        6     2  28    7.4398   547.9    5.425      57.870
2014   11        6     2  33    7.4401   548.1    5.423      57.895
2014   11        6     2  38    7.4403   548.3    5.421      57.919
2014   11        6     2  43    7.4405   548.4    5.419      57.944
2014   11        6     2  48    7.4407   548.6    5.416      57.969
2014   11        6     2  53    7.4409   548.8    5.414      57.993
2014   11        6     2  58    7.4410   549.0    5.411      58.018
2014   11        6     3   3    7.4411   549.1    5.409      58.043
2014   11        6     3   8    7.4411   549.3    5.406      58.067
2014   11        6     3  13    7.4411   549.5    5.403      58.091
2014   11        6     3  18    7.4411   549.7    5.401      58.115
2014   11        6     3  23    7.4411   549.8    5.398      58.138
2014   11        6     3  28    7.4410   550.0    5.395      58.160
2014   11        6     3  33    7.4409   550.2    5.391      58.183
2014   11        6     3  38    7.4408   550.4    5.388      58.204
2014   11        6     3  43    7.4407   550.5    5.385      58.226
2014   11        6     3  48    7.4405   550.7    5.382      58.247
2014   11        6     3  53    7.4403   550.9    5.378      58.268
2014   11        6     3  58    7.4401   551.0    5.375      58.288
2014   11        6     4   3    7.4399   551.2    5.372      58.308
2014   11        6     4   8    7.4397   551.4    5.368      58.328
2014   11        6     4  13    7.4394   551.6    5.365      58.348
2014   11        6     4  18    7.4392   551.7    5.361      58.367
2014   11        6     4  23    7.4389   551.9    5.357      58.386
2014   11        6     4  28    7.4386   552.1    5.354      58.405
2014   11        6     4  33    7.4383   552.3    5.350      58.424
2014   11        6     4  37    7.4380   552.4    5.347      58.442
2014   11        6     4  42    7.4377   552.6    5.343      58.461
2014   11        6     4  47    7.4373   552.8    5.339      58.479
2014   11        6     4  52    7.4370   552.9    5.336      58.498
2014   11        6     4  57    7.4366   553.1    5.332      58.516
2014   11        6     5   2    7.4362   553.3    5.329      58.534
2014   11        6     5   7    7.4359   553.5    5.325      58.553
2014   11        6     5  12    7.4355   553.6    5.321      58.571
2014   11        6     5  17    7.4351   553.8    5.318      58.590
2014   11        6     5  22    7.4347   554.0    5.314      58.608
2014   11        6     5  27    7.4343   554.1    5.311      58.627
2014   11        6     5  32    7.4340   554.3    5.307      58.646
2014   11        6     5  37    7.4336   554.5    5.304      58.666
2014   11        6     5  42    7.4332   554.7    5.301      58.685
2014   11        6     5  47    7.4329   554.8    5.297      58.705
2014   11        6     5  52    7.4325   555.0    5.294      58.726
2014   11        6     5  57    7.4322   555.2    5.291      58.746
2014   11        6     6   2    7.4318   555.3    5.288      58.768
2014   11        6     6   7    7.4315   555.5    5.285      58.790
2014   11        6     6  12    7.4313   555.7    5.283      58.812
2014   11        6     6  17    7.4310   555.9    5.280      58.835
2014   11        6     6  22    7.4308   556.0    5.277      58.859
2014   11        6     6  27    7.4306   556.2    5.275      58.884
2014   11        6     6  32    7.4305   556.4    5.273      58.911
2014   11        6     6  37    7.4304   556.6    5.271      58.939
2014   11        6     6  42    7.4303   556.8    5.268      58.969
2014   11        6     6  47    7.4303   556.9    5.267      59.000
2014   11        6     6  51    7.4303   557.1    5.265      59.033
2014   11        6     6  56    7.4303   557.3    5.263      59.066
2014   11        6     7   1    7.4303   557.5    5.261      59.101
2014   11        6     7   6    7.4304   557.7    5.260      59.137
2014   11        6     7  11    7.4304   557.9    5.258      59.175
2014   11        6     7  16    7.4305   558.1    5.256      59.213
2014   11        6     7  21    7.4306   558.3    5.255      59.252
2014   11        6     7  26    7.4306   558.5    5.253      59.292
2014   11        6     7  31    7.4307   558.7    5.251      59.331
2014   11        6     7  36    7.4307   558.9    5.249      59.371
2014   11        6     7  41    7.4307   559.1    5.248      59.409
2014   11        6     7  46    7.4307   559.3    5.246      59.447
2014   11        6     7  51    7.4306   559.5    5.244      59.485
2014   11        6     7  56    7.4305   559.8    5.242      59.522
2014   11        6     8   1    7.4304   560.0    5.240      59.559
2014   11        6     8   6    7.4303   560.2    5.237      59.594
2014   11        6     8  11    7.4302   560.4    5.235      59.628
2014   11        6     8  16    7.4301   560.6    5.233      59.662
2014   11        6     8  21    7.4299   560.8    5.230      59.695
2014   11        6     8  26    7.4298   561.0    5.228      59.727
2014   11        6     8  31    7.4297   561.2    5.226      59.759
2014   11        6     8  36    7.4296   561.4    5.223      59.791
2014   11        6     8  41    7.4295   561.7    5.221      59.823
2014   11        6     8  46    7.4294   561.9    5.219      59.854
2014   11        6     8  51    7.4294   562.1    5.217      59.885
2014   11        6     8  55    7.4293   562.3    5.215      59.917
2014   11        6     9   0    7.4293   562.5    5.213      59.949
2014   11        6     9   5    7.4292   562.7    5.211      59.981
2014   11        6     9  10    7.4291   562.9    5.209      60.014
2014   11        6     9  15    7.4290   563.1    5.207      60.047
2014   11        6     9  20    7.4289   563.3    5.206      60.082
2014   11        6     9  25    7.4287   563.6    5.204      60.118
2014   11        6     9  30    7.4285   563.8    5.202      60.154
2014   11        6     9  35    7.4283   564.0    5.200      60.191
2014   11        6     9  40    7.4279   564.2    5.199      60.228
2014   11        6     9  45    7.4275   564.5    5.197      60.265
2014   11        6     9  50    7.4271   564.7    5.195      60.303
2014   11        6     9  55    7.4265   564.9    5.193      60.340
2014   11        6    10   0    7.4259   565.2    5.190      60.377
2014   11        6    10   5    7.4252   565.4    5.188      60.414
2014   11        6    10  10    7.4244   565.6    5.185      60.450
2014   11        6    10  15    7.4236   565.9    5.183      60.485
2014   11        6    10  20    7.4227   566.1    5.180      60.520
2014   11        6    10  25    7.4217   566.4    5.176      60.553
2014   11        6    10  30    7.4207   566.6    5.173      60.586
2014   11        6    10  35    7.4196   566.8    5.170      60.617
2014   11        6    10  40    7.4185   567.1    5.166      60.648
2014   11        6    10  45    7.4173   567.3    5.162      60.678
2014   11        6    10  50    7.4161   567.5    5.158      60.708
2014   11        6    10  55    7.4148   567.8    5.154      60.736
2014   11        6    11   0    7.4135   568.0    5.150      60.764
2014   11        6    11   4    7.4121   568.3    5.146      60.791
2014   11        6    11   9    7.4107   568.5    5.142      60.818
2014   11        6    11  14    7.4093   568.7    5.137      60.844
2014   11        6    11  19    7.4078   569.0    5.133      60.870
2014   11        6    11  24    7.4063   569.2    5.128      60.895
2014   11        6    11  29    7.4047   569.4    5.123      60.919
2014   11        6    11  34    7.4032   569.7    5.118      60.944
2014   11        6    11  39    7.4015   569.9    5.114      60.967
2014   11        6    11  44    7.3999   570.1    5.109      60.991
2014   11        6    11  49    7.3982   570.4    5.103      61.013
2014   11        6    11  54    7.3965   570.6    5.098      61.036
2014   11        6    11  59    7.3948   570.8    5.093      61.058
2014   11        6    12   4    7.3930   571.0    5.088      61.080
2014   11        6    12   9    7.3912   571.3    5.082      61.102
2014   11        6    12  14    7.3894   571.5    5.077      61.123
2014   11        6    12  19    7.3875   571.7    5.072      61.144
2014   11        6    12  24    7.3856   572.0    5.066      61.165
2014   11        6    12  29    7.3836   572.2    5.061      61.186
2014   11        6    12  34    7.3817   572.4    5.055      61.206
2014   11        6    12  39    7.3797   572.6    5.050      61.227
2014   11        6    12  44    7.3777   572.8    5.044      61.247
2014   11        6    12  49    7.3756   573.1    5.038      61.268
2014   11        6    12  54    7.3736   573.3    5.033      61.288
2014   11        6    12  59    7.3715   573.5    5.027      61.309
2014   11        6    13   4    7.3694   573.7    5.022      61.329
2014   11        6    13   9    7.3673   573.9    5.016      61.350
2014   11        6    13  14    7.3652   574.2    5.011      61.371
2014   11        6    13  18    7.3630   574.4    5.005      61.392
2014   11        6    13  23    7.3608   574.6    5.000      61.413
2014   11        6    13  28    7.3587   574.8    4.994      61.435
2014   11        6    13  33    7.3565   575.0    4.989      61.457
2014   11        6    13  38    7.3543   575.2    4.984      61.479
2014   11        6    13  43    7.3521   575.5    4.978      61.502
2014   11        6    13  48    7.3499   575.7    4.973      61.525
2014   11        6    13  53    7.3478   575.9    4.968      61.549
2014   11        6    13  58    7.3456   576.1    4.963      61.572
2014   11        6    14   3    7.3434   576.3    4.958      61.598
2014   11        6    14   8    7.3412   576.5    4.954      61.624
2014   11        6    14  13    7.3391   576.7    4.949      61.651
2014   11        6    14  18    7.3369   577.0    4.944      61.679
2014   11        6    14  23    7.3347   577.2    4.940      61.707
2014   11        6    14  28    7.3325   577.4    4.935      61.737
2014   11        6    14  33    7.3303   577.6    4.931      61.766
2014   11        6    14  38    7.3280   577.8    4.926      61.796
2014   11        6    14  43    7.3258   578.1    4.922      61.826
2014   11        6    14  48    7.3235   578.3    4.917      61.856
2014   11        6    14  53    7.3212   578.5    4.913      61.885
2014   11        6    14  58    7.3189   578.7    4.908      61.915
2014   11        6    15   3    7.3165   579.0    4.904      61.944
2014   11        6    15   8    7.3141   579.2    4.899      61.972
2014   11        6    15  13    7.3118   579.4    4.894      61.999
2014   11        6    15  18    7.3093   579.7    4.890      62.026
2014   11        6    15  23    7.3069   579.9    4.885      62.053
2014   11        6    15  27    7.3045   580.1    4.881      62.078
2014   11        6    15  32    7.3020   580.3    4.876      62.104
2014   11        6    15  37    7.2996   580.6    4.872      62.129
2014   11        6    15  42    7.2971   580.8    4.867      62.154
2014   11        6    15  47    7.2947   581.0    4.863      62.178
2014   11        6    15  52    7.2922   581.2    4.859      62.203
2014   11        6    15  57    7.2898   581.4    4.855      62.228
2014   11        6    16   2    7.2873   581.7    4.851      62.253
2014   11        6    16   7    7.2849   581.9    4.847      62.278
2014   11        6    16  12    7.2824   582.1    4.843      62.303
2014   11        6    16  17    7.2799   582.3    4.839      62.330
2014   11        6    16  22    7.2774   582.6    4.836      62.357
2014   11        6    16  27    7.2749   582.8    4.833      62.384
2014   11        6    16  32    7.2723   583.0    4.829      62.412
2014   11        6    16  37    7.2696   583.3    4.826      62.440
2014   11        6    16  42    7.2670   583.5    4.823      62.468
2014   11        6    16  47    7.2642   583.7    4.819      62.496
2014   11        6    16  52    7.2614   584.0    4.816      62.524
2014   11        6    16  57    7.2586   584.2    4.813      62.552
2014   11        6    17   2    7.2557   584.4    4.809      62.578
2014   11        6    17   7    7.2527   584.7    4.806      62.605
2014   11        6    17  12    7.2496   584.9    4.802      62.630
2014   11        6    17  17    7.2465   585.2    4.799      62.654
2014   11        6    17  22    7.2433   585.4    4.795      62.677
2014   11        6    17  26    7.2400   585.6    4.791      62.699
2014   11        6    17  31    7.2367   585.9    4.787      62.719
2014   11        6    17  36    7.2334   586.1    4.783      62.739
2014   11        6    17  41    7.2300   586.4    4.779      62.757
2014   11        6    17  46    7.2265   586.6    4.775      62.774
2014   11        6    17  51    7.2230   586.8    4.770      62.791
2014   11        6    17  56    7.2194   587.1    4.765      62.806
2014   11        6    18   1    7.2158   587.3    4.761      62.820
2014   11        6    18   6    7.2121   587.5    4.756      62.833
2014   11        6    18  11    7.2084   587.8    4.751      62.845
2014   11        6    18  16    7.2047   588.0    4.746      62.856
2014   11        6    18  21    7.2009   588.2    4.741      62.867
2014   11        6    18  26    7.1971   588.4    4.736      62.877
2014   11        6    18  31    7.1932   588.7    4.730      62.886
2014   11        6    18  36    7.1893   588.9    4.725      62.894
2014   11        6    18  41    7.1854   589.1    4.720      62.902
2014   11        6    18  46    7.1814   589.3    4.714      62.909
2014   11        6    18  51    7.1774   589.6    4.708      62.915
2014   11        6    18  56    7.1734   589.8    4.703      62.921
2014   11        6    19   1    7.1694   590.0    4.697      62.926
2014   11        6    19   6    7.1653   590.2    4.691      62.930
2014   11        6    19  11    7.1611   590.4    4.685      62.934
2014   11        6    19  16    7.1570   590.6    4.679      62.938
2014   11        6    19  21    7.1528   590.8    4.673      62.940
2014   11        6    19  25    7.1486   591.0    4.667      62.942
2014   11        6    19  30    7.1443   591.3    4.661      62.943
2014   11        6    19  35    7.1400   591.5    4.655      62.944
2014   11        6    19  40    7.1357   591.7    4.649      62.944
2014   11        6    19  45    7.1314   591.9    4.642      62.944
2014   11        6    19  50    7.1271   592.1    4.636      62.943
2014   11        6    19  55    7.1227   592.3    4.630      62.942
2014   11        6    20   0    7.1183   592.4    4.623      62.940
2014   11        6    20   5    7.1139   592.6    4.617      62.937
2014   11        6    20  10    7.1094   592.8    4.611      62.934
2014   11        6    20  15    7.1050   593.0    4.604      62.930
2014   11        6    20  20    7.1005   593.2    4.598      62.926
2014   11        6    20  25    7.0961   593.4    4.591      62.921
2014   11        6    20  30    7.0916   593.6    4.584      62.916
2014   11        6    20  35    7.0871   593.8    4.578      62.910
2014   11        6    20  40    7.0826   593.9    4.571      62.904
2014   11        6    20  45    7.0781   594.1    4.565      62.898
2014   11        6    20  50    7.0736   594.3    4.558      62.891
2014   11        6    20  55    7.0691   594.5    4.551      62.883
2014   11        6    21   0    7.0646   594.6    4.545      62.875
2014   11        6    21   5    7.0601   594.8    4.538      62.867
2014   11        6    21  10    7.0556   595.0    4.531      62.858
2014   11        6    21  15    7.0510   595.2    4.524      62.848
2014   11        6    21  19    7.0465   595.3    4.518      62.838
2014   11        6    21  24    7.0420   595.5    4.511      62.828
2014   11        6    21  29    7.0375   595.7    4.504      62.818
2014   11        6    21  34    7.0329   595.8    4.498      62.807
2014   11        6    21  39    7.0284   596.0    4.491      62.796
2014   11        6    21  44    7.0239   596.1    4.484      62.784
2014   11        6    21  49    7.0194   596.3    4.478      62.772
2014   11        6    21  54    7.0149   596.4    4.471      62.759
2014   11        6    21  59    7.0104   596.6    4.464      62.747
2014   11        6    22   4    7.0059   596.8    4.458      62.734
2014   11        6    22   9    7.0014   596.9    4.451      62.721
2014   11        6    22  14    6.9969   597.1    4.445      62.707
2014   11        6    22  19    6.9924   597.2    4.439      62.693
2014   11        6    22  24    6.9880   597.3    4.432      62.679
2014   11        6    22  29    6.9835   597.5    4.426      62.665
2014   11        6    22  34    6.9791   597.6    4.420      62.651
2014   11        6    22  39    6.9747   597.8    4.414      62.637
2014   11        6    22  44    6.9703   597.9    4.408      62.623
2014   11        6    22  49    6.9659   598.1    4.402      62.609
2014   11        6    22  54    6.9615   598.2    4.396      62.594
2014   11        6    22  59    6.9571   598.3    4.390      62.580
2014   11        6    23   4    6.9528   598.5    4.384      62.566
2014   11        6    23   9    6.9485   598.6    4.379      62.552
2014   11        6    23  13    6.9441   598.7    4.373      62.539
2014   11        6    23  18    6.9398   598.9    4.368      62.526
2014   11        6    23  23    6.9355   599.0    4.363      62.513
2014   11        6    23  28    6.9313   599.1    4.358      62.500
2014   11        6    23  33    6.9270   599.3    4.353      62.487
2014   11        6    23  38    6.9227   599.4    4.348      62.475
2014   11        6    23  43    6.9184   599.5    4.343      62.463
2014   11        6    23  48    6.9141   599.7    4.338      62.452
2014   11        6    23  53    6.9098   599.8    4.334      62.441
2014   11        6    23  58    6.9055   599.9    4.330      62.430
2014   11        7     0   3    6.9012   600.1    4.325      62.419
