year    month   day   hour  minute  B_enl V_enl   n_enl       T_enl
[year] [month] [day] [hour][minute] [nT]  [km/s]  [cm-3]      [kK]
2014   11       10     0   1    6.5772   540.0    5.646      56.495
2014   11       10     0   6    6.5787   540.2    5.641      56.544
2014   11       10     0  12    6.5802   540.5    5.637      56.592
2014   11       10     0  17    6.5817   540.7    5.632      56.639
2014   11       10     0  22    6.5831   541.0    5.627      56.684
2014   11       10     0  28    6.5845   541.2    5.622      56.729
2014   11       10     0  33    6.5859   541.5    5.617      56.773
2014   11       10     0  39    6.5872   541.7    5.612      56.816
2014   11       10     0  44    6.5885   542.0    5.607      56.858
2014   11       10     0  50    6.5898   542.2    5.602      56.899
2014   11       10     0  55    6.5911   542.5    5.597      56.939
2014   11       10     1   1    6.5923   542.7    5.592      56.979
2014   11       10     1   6    6.5935   542.9    5.587      57.018
2014   11       10     1  12    6.5947   543.2    5.581      57.057
2014   11       10     1  17    6.5958   543.4    5.576      57.094
2014   11       10     1  22    6.5969   543.7    5.571      57.132
2014   11       10     1  28    6.5980   543.9    5.566      57.168
2014   11       10     1  33    6.5991   544.2    5.561      57.205
2014   11       10     1  39    6.6002   544.4    5.555      57.241
2014   11       10     1  44    6.6012   544.6    5.550      57.276
2014   11       10     1  50    6.6022   544.9    5.545      57.312
2014   11       10     1  55    6.6032   545.1    5.540      57.347
2014   11       10     2   1    6.6042   545.4    5.536      57.383
2014   11       10     2   6    6.6052   545.6    5.531      57.418
2014   11       10     2  12    6.6061   545.8    5.527      57.455
2014   11       10     2  17    6.6072   546.0    5.523      57.491
2014   11       10     2  22    6.6082   546.3    5.519      57.529
2014   11       10     2  28    6.6091   546.5    5.515      57.567
2014   11       10     2  33    6.6101   546.7    5.512      57.606
2014   11       10     2  39    6.6112   547.0    5.509      57.647
2014   11       10     2  44    6.6122   547.2    5.506      57.690
2014   11       10     2  50    6.6134   547.4    5.504      57.735
2014   11       10     2  55    6.6146   547.6    5.502      57.782
2014   11       10     3   1    6.6159   547.8    5.501      57.831
2014   11       10     3   6    6.6172   548.1    5.501      57.885
2014   11       10     3  12    6.6187   548.3    5.501      57.942
2014   11       10     3  17    6.6201   548.5    5.501      58.004
2014   11       10     3  23    6.6218   548.8    5.502      58.071
2014   11       10     3  28    6.6235   549.0    5.504      58.143
2014   11       10     3  33    6.6250   549.3    5.505      58.219
2014   11       10     3  39    6.6269   549.5    5.507      58.299
2014   11       10     3  44    6.6285   549.8    5.508      58.381
2014   11       10     3  50    6.6302   550.1    5.510      58.466
2014   11       10     3  55    6.6318   550.3    5.511      58.551
2014   11       10     4   1    6.6333   550.6    5.512      58.637
2014   11       10     4   6    6.6346   550.9    5.513      58.723
2014   11       10     4  12    6.6359   551.2    5.514      58.808
2014   11       10     4  17    6.6373   551.5    5.513      58.891
2014   11       10     4  23    6.6382   551.8    5.513      58.972
2014   11       10     4  28    6.6392   552.1    5.512      59.050
2014   11       10     4  33    6.6400   552.4    5.510      59.125
2014   11       10     4  39    6.6408   552.7    5.509      59.196
2014   11       10     4  44    6.6417   553.0    5.506      59.264
2014   11       10     4  50    6.6423   553.3    5.504      59.330
2014   11       10     4  55    6.6426   553.6    5.501      59.393
2014   11       10     5   1    6.6432   553.9    5.498      59.453
2014   11       10     5   6    6.6436   554.2    5.494      59.512
2014   11       10     5  12    6.6438   554.5    5.490      59.568
2014   11       10     5  17    6.6443   554.8    5.487      59.623
2014   11       10     5  23    6.6443   555.1    5.483      59.676
2014   11       10     5  28    6.6445   555.4    5.478      59.728
2014   11       10     5  34    6.6446   555.7    5.474      59.779
2014   11       10     5  39    6.6450   556.0    5.470      59.829
2014   11       10     5  44    6.6448   556.3    5.465      59.878
2014   11       10     5  50    6.6449   556.6    5.461      59.927
2014   11       10     5  55    6.6449   556.9    5.457      59.977
2014   11       10     6   1    6.6449   557.2    5.452      60.028
2014   11       10     6   6    6.6450   557.5    5.447      60.079
2014   11       10     6  12    6.6446   557.8    5.443      60.131
2014   11       10     6  17    6.6444   558.1    5.438      60.184
2014   11       10     6  23    6.6441   558.4    5.433      60.238
2014   11       10     6  28    6.6440   558.7    5.428      60.292
2014   11       10     6  34    6.6433   559.0    5.423      60.347
2014   11       10     6  39    6.6428   559.4    5.418      60.402
2014   11       10     6  45    6.6421   559.7    5.413      60.458
2014   11       10     6  50    6.6417   560.0    5.407      60.513
2014   11       10     6  55    6.6406   560.3    5.401      60.567
2014   11       10     7   1    6.6400   560.6    5.395      60.620
2014   11       10     7   6    6.6390   560.9    5.389      60.671
2014   11       10     7  12    6.6380   561.2    5.383      60.721
2014   11       10     7  17    6.6365   561.5    5.377      60.770
2014   11       10     7  23    6.6353   561.9    5.370      60.818
2014   11       10     7  28    6.6341   562.2    5.363      60.863
2014   11       10     7  34    6.6330   562.5    5.356      60.907
2014   11       10     7  39    6.6314   562.8    5.349      60.950
2014   11       10     7  45    6.6299   563.1    5.342      60.991
2014   11       10     7  50    6.6287   563.4    5.334      61.030
2014   11       10     7  55    6.6272   563.7    5.327      61.068
2014   11       10     8   1    6.6252   564.0    5.319      61.105
2014   11       10     8   6    6.6236   564.4    5.311      61.140
2014   11       10     8  12    6.6219   564.7    5.303      61.174
2014   11       10     8  17    6.6201   565.0    5.296      61.207
2014   11       10     8  23    6.6182   565.3    5.288      61.239
2014   11       10     8  28    6.6163   565.6    5.280      61.270
2014   11       10     8  34    6.6144   565.9    5.271      61.299
2014   11       10     8  39    6.6124   566.2    5.263      61.328
2014   11       10     8  45    6.6107   566.5    5.255      61.355
2014   11       10     8  50    6.6083   566.8    5.247      61.382
2014   11       10     8  56    6.6065   567.1    5.239      61.408
2014   11       10     9   1    6.6043   567.4    5.230      61.433
2014   11       10     9   6    6.6021   567.8    5.222      61.457
2014   11       10     9  12    6.5995   568.1    5.214      61.480
2014   11       10     9  17    6.5975   568.4    5.206      61.503
2014   11       10     9  23    6.5951   568.6    5.197      61.526
2014   11       10     9  28    6.5924   568.9    5.189      61.548
2014   11       10     9  34    6.5900   569.2    5.181      61.569
2014   11       10     9  39    6.5879   569.5    5.173      61.591
2014   11       10     9  45    6.5854   569.8    5.165      61.613
2014   11       10     9  50    6.5829   570.1    5.157      61.634
2014   11       10     9  56    6.5800   570.4    5.149      61.656
2014   11       10    10   1    6.5778   570.7    5.142      61.678
2014   11       10    10   6    6.5752   571.0    5.134      61.701
2014   11       10    10  12    6.5726   571.3    5.127      61.724
2014   11       10    10  17    6.5699   571.5    5.120      61.748
2014   11       10    10  23    6.5668   571.8    5.113      61.773
2014   11       10    10  28    6.5646   572.1    5.106      61.800
2014   11       10    10  34    6.5615   572.4    5.100      61.826
2014   11       10    10  39    6.5593   572.6    5.094      61.855
2014   11       10    10  45    6.5567   572.9    5.089      61.887
2014   11       10    10  50    6.5541   573.2    5.083      61.922
2014   11       10    10  56    6.5510   573.4    5.078      61.959
2014   11       10    11   1    6.5483   573.7    5.073      61.998
2014   11       10    11   6    6.5456   574.0    5.067      62.040
2014   11       10    11  12    6.5428   574.3    5.062      62.083
2014   11       10    11  17    6.5406   574.6    5.057      62.127
2014   11       10    11  23    6.5372   574.9    5.052      62.172
2014   11       10    11  28    6.5344   575.1    5.047      62.216
2014   11       10    11  34    6.5319   575.4    5.041      62.261
2014   11       10    11  39    6.5284   575.7    5.035      62.307
2014   11       10    11  45    6.5252   576.0    5.029      62.352
2014   11       10    11  50    6.5220   576.3    5.023      62.395
2014   11       10    11  56    6.5192   576.6    5.017      62.436
2014   11       10    12   1    6.5153   576.9    5.010      62.475
2014   11       10    12   7    6.5123   577.2    5.003      62.512
2014   11       10    12  12    6.5088   577.5    4.996      62.548
2014   11       10    12  17    6.5052   577.8    4.989      62.582
2014   11       10    12  23    6.5015   578.1    4.982      62.614
2014   11       10    12  28    6.4972   578.4    4.974      62.645
2014   11       10    12  34    6.4939   578.7    4.967      62.673
2014   11       10    12  39    6.4895   579.0    4.959      62.700
2014   11       10    12  45    6.4861   579.3    4.951      62.726
2014   11       10    12  50    6.4820   579.6    4.944      62.750
2014   11       10    12  56    6.4780   579.9    4.936      62.773
2014   11       10    13   1    6.4739   580.2    4.928      62.796
2014   11       10    13   7    6.4692   580.5    4.920      62.817
2014   11       10    13  12    6.4655   580.7    4.912      62.837
2014   11       10    13  17    6.4612   581.0    4.904      62.857
2014   11       10    13  23    6.4564   581.3    4.895      62.877
2014   11       10    13  28    6.4521   581.6    4.887      62.897
2014   11       10    13  34    6.4476   581.8    4.879      62.916
2014   11       10    13  39    6.4432   582.1    4.871      62.934
2014   11       10    13  45    6.4391   582.4    4.863      62.952
2014   11       10    13  50    6.4345   582.6    4.855      62.970
2014   11       10    13  56    6.4295   582.9    4.846      62.987
2014   11       10    14   1    6.4249   583.2    4.838      63.003
2014   11       10    14   7    6.4202   583.4    4.830      63.018
2014   11       10    14  12    6.4159   583.7    4.821      63.032
2014   11       10    14  18    6.4107   584.0    4.813      63.046
2014   11       10    14  23    6.4063   584.2    4.804      63.059
2014   11       10    14  28    6.4015   584.5    4.796      63.070
2014   11       10    14  34    6.3962   584.7    4.787      63.080
2014   11       10    14  39    6.3913   585.0    4.778      63.088
2014   11       10    14  45    6.3864   585.2    4.769      63.096
2014   11       10    14  50    6.3818   585.5    4.761      63.102
2014   11       10    14  56    6.3764   585.7    4.752      63.108
2014   11       10    15   1    6.3717   586.0    4.743      63.112
2014   11       10    15   7    6.3667   586.2    4.734      63.115
2014   11       10    15  12    6.3612   586.5    4.725      63.117
2014   11       10    15  18    6.3561   586.7    4.716      63.118
2014   11       10    15  23    6.3512   586.9    4.707      63.118
2014   11       10    15  29    6.3460   587.2    4.698      63.117
2014   11       10    15  34    6.3404   587.4    4.689      63.116
2014   11       10    15  39    6.3351   587.7    4.680      63.113
2014   11       10    15  45    6.3301   587.9    4.671      63.110
2014   11       10    15  50    6.3247   588.1    4.662      63.105
2014   11       10    15  56    6.3193   588.4    4.653      63.100
2014   11       10    16   1    6.3139   588.6    4.644      63.094
2014   11       10    16   7    6.3084   588.8    4.635      63.088
2014   11       10    16  12    6.3029   589.0    4.626      63.081
2014   11       10    16  18    6.2974   589.3    4.617      63.073
2014   11       10    16  23    6.2916   589.5    4.608      63.064
2014   11       10    16  29    6.2860   589.7    4.599      63.055
2014   11       10    16  34    6.2805   589.9    4.590      63.045
2014   11       10    16  39    6.2748   590.1    4.581      63.035
2014   11       10    16  45    6.2693   590.3    4.572      63.025
2014   11       10    16  50    6.2636   590.5    4.563      63.014
2014   11       10    16  56    6.2580   590.7    4.554      63.004
2014   11       10    17   1    6.2526   590.9    4.545      62.992
2014   11       10    17   7    6.2469   591.2    4.537      62.980
2014   11       10    17  12    6.2409   591.4    4.528      62.968
2014   11       10    17  18    6.2355   591.6    4.519      62.956
2014   11       10    17  23    6.2297   591.8    4.511      62.944
2014   11       10    17  29    6.2237   591.9    4.502      62.931
2014   11       10    17  34    6.2179   592.1    4.493      62.918
2014   11       10    17  39    6.2121   592.3    4.485      62.904
2014   11       10    17  45    6.2066   592.5    4.476      62.891
2014   11       10    17  50    6.2008   592.7    4.468      62.877
2014   11       10    17  56    6.1946   592.9    4.459      62.863
2014   11       10    18   1    6.1890   593.0    4.451      62.849
2014   11       10    18   7    6.1832   593.2    4.443      62.835
2014   11       10    18  12    6.1771   593.4    4.435      62.821
2014   11       10    18  18    6.1714   593.5    4.427      62.807
2014   11       10    18  23    6.1653   593.7    4.419      62.794
2014   11       10    18  29    6.1596   593.9    4.411      62.780
2014   11       10    18  34    6.1537   594.0    4.403      62.767
2014   11       10    18  40    6.1475   594.2    4.395      62.755
2014   11       10    18  45    6.1416   594.3    4.387      62.742
2014   11       10    18  50    6.1359   594.5    4.380      62.731
2014   11       10    18  56    6.1298   594.6    4.373      62.719
2014   11       10    19   1    6.1241   594.7    4.365      62.708
2014   11       10    19   7    6.1180   594.9    4.358      62.698
2014   11       10    19  12    6.1121   595.0    4.351      62.688
2014   11       10    19  18    6.1064   595.1    4.345      62.678
2014   11       10    19  23    6.1006   595.3    4.338      62.669
2014   11       10    19  29    6.0945   595.4    4.332      62.661
2014   11       10    19  34    6.0888   595.5    4.326      62.653
2014   11       10    19  40    6.0828   595.6    4.320      62.645
2014   11       10    19  45    6.0772   595.7    4.314      62.638
2014   11       10    19  50    6.0714   595.9    4.308      62.631
2014   11       10    19  56    6.0655   596.0    4.303      62.624
2014   11       10    20   1    6.0598   596.1    4.297      62.618
2014   11       10    20   7    6.0542   596.2    4.292      62.612
2014   11       10    20  12    6.0485   596.3    4.287      62.607
2014   11       10    20  18    6.0429   596.4    4.282      62.602
2014   11       10    20  23    6.0375   596.5    4.277      62.596
2014   11       10    20  29    6.0319   596.6    4.272      62.591
2014   11       10    20  34    6.0264   596.7    4.267      62.586
2014   11       10    20  40    6.0210   596.8    4.262      62.579
2014   11       10    20  45    6.0156   597.0    4.257      62.572
2014   11       10    20  51    6.0102   597.1    4.252      62.564
2014   11       10    20  56    6.0048   597.2    4.247      62.556
2014   11       10    21   1    5.9994   597.3    4.242      62.546
2014   11       10    21   7    5.9941   597.4    4.236      62.535
2014   11       10    21  12    5.9887   597.5    4.231      62.523
2014   11       10    21  18    5.9834   597.6    4.225      62.510
2014   11       10    21  23    5.9780   597.7    4.220      62.495
2014   11       10    21  29    5.9727   597.8    4.214      62.479
2014   11       10    21  34    5.9673   597.9    4.208      62.462
2014   11       10    21  40    5.9619   597.9    4.202      62.443
2014   11       10    21  45    5.9565   598.0    4.197      62.424
2014   11       10    21  51    5.9511   598.1    4.191      62.403
2014   11       10    21  56    5.9458   598.2    4.184      62.382
2014   11       10    22   2    5.9405   598.3    4.178      62.359
2014   11       10    22   7    5.9350   598.4    4.172      62.336
2014   11       10    22  12    5.9296   598.5    4.166      62.312
2014   11       10    22  18    5.9242   598.5    4.160      62.287
2014   11       10    22  23    5.9190   598.6    4.154      62.261
2014   11       10    22  29    5.9136   598.7    4.147      62.234
2014   11       10    22  34    5.9081   598.8    4.141      62.207
2014   11       10    22  40    5.9028   598.8    4.135      62.180
2014   11       10    22  45    5.8975   598.9    4.129      62.151
2014   11       10    22  51    5.8921   599.0    4.122      62.122
2014   11       10    22  56    5.8866   599.0    4.116      62.093
2014   11       10    23   2    5.8813   599.1    4.110      62.063
2014   11       10    23   7    5.8759   599.2    4.104      62.032
2014   11       10    23  12    5.8705   599.2    4.097      62.001
2014   11       10    23  18    5.8652   599.3    4.091      61.970
2014   11       10    23  23    5.8600   599.4    4.085      61.937
2014   11       10    23  29    5.8545   599.4    4.078      61.905
2014   11       10    23  34    5.8491   599.5    4.072      61.871
2014   11       10    23  40    5.8440   599.5    4.066      61.837
2014   11       10    23  45    5.8386   599.6    4.060      61.803
2014   11       10    23  51    5.8331   599.7    4.053      61.767
2014   11       10    23  56    5.8280   599.7    4.047      61.732
2014   11       11     0   2    5.8227   599.8    4.041      61.696
2014   11       11     0   7    5.8174   599.8    4.035      61.659
2014   11       11     0  13    5.8121   599.9    4.028      61.622
2014   11       11     0  18    5.8066   599.9    4.022      61.584
2014   11       11     0  23    5.8013   600.0    4.016      61.546
2014   11       11     0  29    5.7960   600.0    4.010      61.507
2014   11       11     0  34    5.7908   600.0    4.004      61.468
2014   11       11     0  40    5.7855   600.1    3.997      61.428
2014   11       11     0  45    5.7804   600.1    3.991      61.388
2014   11       11     0  51    5.7752   600.1    3.985      61.347
2014   11       11     0  56    5.7698   600.2    3.979      61.306
2014   11       11     1   2    5.7648   600.2    3.973      61.265
2014   11       11     1   7    5.7593   600.2    3.967      61.224
2014   11       11     1  13    5.7541   600.3    3.961      61.183
2014   11       11     1  18    5.7490   600.3    3.956      61.142
2014   11       11     1  23    5.7438   600.3    3.950      61.100
2014   11       11     1  29    5.7387   600.3    3.944      61.059
2014   11       11     1  34    5.7336   600.3    3.939      61.019
2014   11       11     1  40    5.7285   600.3    3.934      60.978
2014   11       11     1  45    5.7235   600.3    3.929      60.938
2014   11       11     1  51    5.7187   600.3    3.924      60.899
2014   11       11     1  56    5.7135   600.3    3.919      60.860
2014   11       11     2   2    5.7085   600.3    3.914      60.822
2014   11       11     2   7    5.7039   600.3    3.910      60.785
2014   11       11     2  13    5.6987   600.3    3.905      60.749
2014   11       11     2  18    5.6939   600.3    3.901      60.715
2014   11       11     2  23    5.6894   600.2    3.898      60.681
2014   11       11     2  29    5.6844   600.2    3.894      60.649
