year    month   day   hour  minute  B_enl V_enl   n_enl       T_enl
[year] [month] [day] [hour][minute] [nT]  [km/s]  [cm-3]      [kK]
2014   11       11     0   4    5.5878   594.8    4.036      59.994
2014   11       11     0  10    5.5831   594.9    4.031      59.975
2014   11       11     0  15    5.5783   595.0    4.026      59.956
2014   11       11     0  21    5.5736   595.0    4.021      59.936
2014   11       11     0  26    5.5689   595.1    4.017      59.916
2014   11       11     0  32    5.5642   595.2    4.012      59.895
2014   11       11     0  37    5.5594   595.2    4.007      59.874
2014   11       11     0  43    5.5546   595.3    4.002      59.852
2014   11       11     0  48    5.5498   595.4    3.997      59.830
2014   11       11     0  54    5.5450   595.4    3.993      59.807
2014   11       11     0  59    5.5403   595.5    3.988      59.783
2014   11       11     1   5    5.5355   595.5    3.983      59.760
2014   11       11     1  10    5.5307   595.6    3.978      59.735
2014   11       11     1  16    5.5259   595.6    3.973      59.710
2014   11       11     1  21    5.5211   595.7    3.969      59.685
2014   11       11     1  27    5.5164   595.7    3.964      59.659
2014   11       11     1  33    5.5116   595.8    3.959      59.633
2014   11       11     1  38    5.5068   595.8    3.954      59.606
2014   11       11     1  44    5.5019   595.8    3.949      59.579
2014   11       11     1  49    5.4971   595.9    3.944      59.551
2014   11       11     1  55    5.4923   595.9    3.939      59.523
2014   11       11     2   0    5.4877   596.0    3.935      59.495
2014   11       11     2   6    5.4828   596.0    3.930      59.466
2014   11       11     2  11    5.4781   596.0    3.925      59.436
2014   11       11     2  17    5.4734   596.0    3.920      59.407
2014   11       11     2  22    5.4686   596.1    3.916      59.377
2014   11       11     2  28    5.4637   596.1    3.911      59.347
2014   11       11     2  33    5.4592   596.1    3.906      59.316
2014   11       11     2  39    5.4545   596.1    3.902      59.285
2014   11       11     2  44    5.4496   596.1    3.897      59.254
2014   11       11     2  50    5.4451   596.2    3.892      59.223
2014   11       11     2  55    5.4403   596.2    3.888      59.192
2014   11       11     3   1    5.4359   596.2    3.883      59.160
2014   11       11     3   6    5.4313   596.2    3.879      59.129
2014   11       11     3  12    5.4267   596.2    3.875      59.097
2014   11       11     3  17    5.4222   596.2    3.871      59.066
2014   11       11     3  23    5.4177   596.2    3.866      59.034
2014   11       11     3  28    5.4132   596.2    3.862      59.003
2014   11       11     3  34    5.4087   596.2    3.858      58.971
2014   11       11     3  39    5.4041   596.2    3.854      58.941
2014   11       11     3  45    5.3999   596.2    3.850      58.910
2014   11       11     3  51    5.3956   596.1    3.847      58.879
2014   11       11     3  56    5.3912   596.1    3.843      58.849
2014   11       11     4   2    5.3868   596.1    3.840      58.820
2014   11       11     4   7    5.3827   596.1    3.836      58.791
2014   11       11     4  13    5.3785   596.1    3.833      58.762
2014   11       11     4  18    5.3743   596.1    3.829      58.734
2014   11       11     4  24    5.3701   596.0    3.826      58.706
2014   11       11     4  29    5.3659   596.0    3.823      58.679
2014   11       11     4  35    5.3618   596.0    3.820      58.653
2014   11       11     4  40    5.3579   596.0    3.817      58.627
2014   11       11     4  46    5.3537   595.9    3.814      58.602
2014   11       11     4  51    5.3498   595.9    3.812      58.578
2014   11       11     4  57    5.3459   595.9    3.809      58.555
2014   11       11     5   2    5.3419   595.9    3.806      58.533
2014   11       11     5   8    5.3379   595.8    3.804      58.511
2014   11       11     5  13    5.3341   595.8    3.801      58.489
2014   11       11     5  19    5.3301   595.8    3.799      58.468
2014   11       11     5  24    5.3262   595.8    3.796      58.446
2014   11       11     5  30    5.3225   595.7    3.793      58.425
2014   11       11     5  35    5.3186   595.7    3.791      58.404
2014   11       11     5  41    5.3147   595.7    3.788      58.383
2014   11       11     5  46    5.3110   595.6    3.785      58.362
2014   11       11     5  52    5.3070   595.6    3.783      58.340
2014   11       11     5  57    5.3033   595.6    3.780      58.319
2014   11       11     6   3    5.2995   595.6    3.777      58.296
2014   11       11     6   9    5.2956   595.5    3.775      58.274
2014   11       11     6  14    5.2919   595.5    3.772      58.251
2014   11       11     6  20    5.2880   595.5    3.769      58.228
2014   11       11     6  25    5.2842   595.4    3.766      58.204
2014   11       11     6  31    5.2802   595.4    3.764      58.180
2014   11       11     6  36    5.2765   595.4    3.761      58.156
2014   11       11     6  42    5.2725   595.3    3.758      58.130
2014   11       11     6  47    5.2687   595.3    3.755      58.105
2014   11       11     6  53    5.2649   595.3    3.752      58.079
2014   11       11     6  58    5.2610   595.3    3.749      58.052
2014   11       11     7   4    5.2569   595.2    3.746      58.025
2014   11       11     7   9    5.2530   595.2    3.743      57.997
2014   11       11     7  15    5.2492   595.2    3.740      57.969
2014   11       11     7  20    5.2452   595.1    3.737      57.940
2014   11       11     7  26    5.2412   595.1    3.734      57.911
2014   11       11     7  31    5.2373   595.0    3.731      57.882
2014   11       11     7  37    5.2333   595.0    3.728      57.852
2014   11       11     7  42    5.2293   595.0    3.725      57.822
2014   11       11     7  48    5.2253   594.9    3.722      57.792
2014   11       11     7  53    5.2212   594.9    3.719      57.761
2014   11       11     7  59    5.2172   594.9    3.716      57.730
2014   11       11     8   4    5.2133   594.8    3.713      57.699
2014   11       11     8  10    5.2093   594.8    3.710      57.667
2014   11       11     8  16    5.2053   594.7    3.707      57.636
2014   11       11     8  21    5.2012   594.7    3.704      57.604
2014   11       11     8  27    5.1974   594.6    3.701      57.572
2014   11       11     8  32    5.1934   594.6    3.699      57.539
2014   11       11     8  38    5.1893   594.5    3.696      57.507
2014   11       11     8  43    5.1853   594.5    3.693      57.474
2014   11       11     8  49    5.1814   594.5    3.690      57.441
2014   11       11     8  54    5.1775   594.4    3.688      57.408
2014   11       11     9   0    5.1735   594.4    3.685      57.376
2014   11       11     9   5    5.1694   594.3    3.683      57.343
2014   11       11     9  11    5.1656   594.2    3.680      57.310
2014   11       11     9  16    5.1616   594.2    3.678      57.277
2014   11       11     9  22    5.1577   594.1    3.675      57.244
2014   11       11     9  27    5.1539   594.1    3.673      57.211
2014   11       11     9  33    5.1499   594.0    3.671      57.178
2014   11       11     9  38    5.1461   594.0    3.669      57.145
2014   11       11     9  44    5.1422   593.9    3.667      57.112
2014   11       11     9  49    5.1384   593.8    3.665      57.079
2014   11       11     9  55    5.1346   593.8    3.662      57.046
2014   11       11    10   0    5.1308   593.7    3.661      57.013
2014   11       11    10   6    5.1270   593.6    3.659      56.981
2014   11       11    10  11    5.1232   593.6    3.657      56.948
2014   11       11    10  17    5.1195   593.5    3.655      56.915
2014   11       11    10  23    5.1158   593.4    3.653      56.882
2014   11       11    10  28    5.1119   593.4    3.651      56.849
2014   11       11    10  34    5.1083   593.3    3.649      56.816
2014   11       11    10  39    5.1047   593.2    3.648      56.783
2014   11       11    10  45    5.1009   593.2    3.646      56.750
2014   11       11    10  50    5.0972   593.1    3.644      56.717
2014   11       11    10  56    5.0938   593.0    3.643      56.683
2014   11       11    11   1    5.0900   592.9    3.641      56.649
2014   11       11    11   7    5.0866   592.9    3.639      56.615
2014   11       11    11  12    5.0830   592.8    3.637      56.581
2014   11       11    11  18    5.0795   592.7    3.636      56.547
2014   11       11    11  23    5.0758   592.6    3.634      56.512
2014   11       11    11  29    5.0723   592.5    3.632      56.477
2014   11       11    11  34    5.0690   592.5    3.631      56.442
2014   11       11    11  40    5.0655   592.4    3.629      56.407
2014   11       11    11  45    5.0621   592.3    3.627      56.372
2014   11       11    11  51    5.0585   592.2    3.625      56.336
2014   11       11    11  56    5.0553   592.1    3.624      56.300
2014   11       11    12   2    5.0518   592.0    3.622      56.264
2014   11       11    12   7    5.0485   591.9    3.620      56.228
2014   11       11    12  13    5.0451   591.8    3.618      56.191
2014   11       11    12  18    5.0419   591.7    3.616      56.154
2014   11       11    12  24    5.0385   591.6    3.614      56.117
2014   11       11    12  29    5.0352   591.6    3.612      56.081
2014   11       11    12  35    5.0321   591.5    3.611      56.043
2014   11       11    12  41    5.0288   591.4    3.609      56.006
2014   11       11    12  46    5.0256   591.3    3.607      55.968
2014   11       11    12  52    5.0224   591.2    3.605      55.930
2014   11       11    12  57    5.0192   591.1    3.603      55.892
2014   11       11    13   3    5.0159   591.0    3.601      55.853
2014   11       11    13   8    5.0129   590.9    3.599      55.815
2014   11       11    13  14    5.0097   590.8    3.597      55.776
2014   11       11    13  19    5.0066   590.7    3.595      55.736
2014   11       11    13  25    5.0033   590.6    3.593      55.697
2014   11       11    13  30    5.0002   590.5    3.591      55.657
2014   11       11    13  36    4.9970   590.4    3.589      55.617
2014   11       11    13  41    4.9941   590.3    3.587      55.577
2014   11       11    13  47    4.9908   590.2    3.585      55.536
2014   11       11    13  52    4.9878   590.0    3.583      55.496
2014   11       11    13  58    4.9847   589.9    3.580      55.455
2014   11       11    14   3    4.9816   589.8    3.578      55.413
2014   11       11    14   9    4.9785   589.7    3.576      55.372
2014   11       11    14  14    4.9753   589.6    3.574      55.331
2014   11       11    14  20    4.9722   589.5    3.572      55.289
2014   11       11    14  25    4.9691   589.4    3.570      55.247
2014   11       11    14  31    4.9661   589.3    3.568      55.205
2014   11       11    14  36    4.9631   589.1    3.566      55.163
2014   11       11    14  42    4.9600   589.0    3.564      55.121
2014   11       11    14  48    4.9568   588.9    3.562      55.078
2014   11       11    14  53    4.9537   588.8    3.560      55.036
2014   11       11    14  59    4.9507   588.7    3.559      54.994
2014   11       11    15   4    4.9477   588.6    3.557      54.952
2014   11       11    15  10    4.9446   588.4    3.555      54.909
2014   11       11    15  15    4.9414   588.3    3.553      54.867
2014   11       11    15  21    4.9385   588.2    3.551      54.825
2014   11       11    15  26    4.9354   588.1    3.549      54.783
2014   11       11    15  32    4.9324   588.0    3.548      54.741
2014   11       11    15  37    4.9293   587.8    3.546      54.699
2014   11       11    15  43    4.9263   587.7    3.545      54.657
2014   11       11    15  48    4.9233   587.6    3.543      54.616
2014   11       11    15  54    4.9203   587.5    3.541      54.574
2014   11       11    15  59    4.9172   587.3    3.540      54.533
2014   11       11    16   5    4.9142   587.2    3.539      54.492
2014   11       11    16  10    4.9111   587.1    3.537      54.451
2014   11       11    16  16    4.9082   587.0    3.536      54.410
2014   11       11    16  21    4.9053   586.8    3.535      54.370
2014   11       11    16  27    4.9022   586.7    3.533      54.329
2014   11       11    16  32    4.8993   586.6    3.532      54.289
2014   11       11    16  38    4.8963   586.4    3.531      54.249
2014   11       11    16  43    4.8934   586.3    3.530      54.210
2014   11       11    16  49    4.8905   586.2    3.529      54.170
2014   11       11    16  54    4.8876   586.1    3.528      54.131
2014   11       11    17   0    4.8846   585.9    3.527      54.092
2014   11       11    17   6    4.8818   585.8    3.526      54.053
2014   11       11    17  11    4.8788   585.7    3.525      54.014
2014   11       11    17  17    4.8759   585.5    3.524      53.975
2014   11       11    17  22    4.8730   585.4    3.524      53.936
2014   11       11    17  28    4.8701   585.3    3.523      53.897
2014   11       11    17  33    4.8672   585.1    3.522      53.858
2014   11       11    17  39    4.8644   585.0    3.521      53.819
2014   11       11    17  44    4.8614   584.8    3.521      53.779
2014   11       11    17  50    4.8586   584.7    3.520      53.739
2014   11       11    17  55    4.8557   584.6    3.519      53.700
2014   11       11    18   1    4.8528   584.4    3.518      53.659
2014   11       11    18   6    4.8499   584.3    3.518      53.619
2014   11       11    18  12    4.8470   584.1    3.517      53.578
2014   11       11    18  17    4.8441   584.0    3.516      53.536
2014   11       11    18  23    4.8413   583.8    3.515      53.495
2014   11       11    18  28    4.8384   583.7    3.515      53.453
2014   11       11    18  34    4.8355   583.5    3.514      53.411
2014   11       11    18  39    4.8327   583.4    3.513      53.368
2014   11       11    18  45    4.8299   583.2    3.513      53.326
2014   11       11    18  50    4.8270   583.1    3.512      53.283
2014   11       11    18  56    4.8241   582.9    3.511      53.241
2014   11       11    19   1    4.8214   582.8    3.511      53.198
2014   11       11    19   7    4.8186   582.6    3.510      53.155
2014   11       11    19  12    4.8158   582.4    3.510      53.112
2014   11       11    19  18    4.8130   582.3    3.509      53.069
2014   11       11    19  24    4.8103   582.1    3.509      53.027
2014   11       11    19  29    4.8076   582.0    3.508      52.984
2014   11       11    19  35    4.8049   581.8    3.508      52.942
2014   11       11    19  40    4.8023   581.6    3.508      52.900
2014   11       11    19  46    4.7997   581.5    3.508      52.858
2014   11       11    19  51    4.7971   581.3    3.507      52.817
2014   11       11    19  57    4.7945   581.1    3.507      52.776
2014   11       11    20   2    4.7920   581.0    3.507      52.735
2014   11       11    20   8    4.7894   580.8    3.507      52.694
2014   11       11    20  13    4.7869   580.6    3.507      52.654
2014   11       11    20  19    4.7845   580.5    3.507      52.614
2014   11       11    20  24    4.7820   580.3    3.507      52.574
2014   11       11    20  30    4.7795   580.1    3.508      52.534
2014   11       11    20  35    4.7771   580.0    3.508      52.494
2014   11       11    20  41    4.7748   579.8    3.508      52.454
2014   11       11    20  46    4.7724   579.6    3.508      52.414
2014   11       11    20  52    4.7700   579.5    3.508      52.374
2014   11       11    20  57    4.7676   579.3    3.508      52.333
2014   11       11    21   3    4.7652   579.1    3.508      52.292
2014   11       11    21   8    4.7629   579.0    3.508      52.250
2014   11       11    21  14    4.7605   578.8    3.508      52.208
2014   11       11    21  19    4.7580   578.6    3.508      52.166
2014   11       11    21  25    4.7557   578.5    3.508      52.123
2014   11       11    21  31    4.7533   578.3    3.508      52.080
2014   11       11    21  36    4.7510   578.1    3.508      52.036
2014   11       11    21  42    4.7486   577.9    3.508      51.992
2014   11       11    21  47    4.7462   577.8    3.508      51.947
2014   11       11    21  53    4.7439   577.6    3.507      51.902
2014   11       11    21  58    4.7416   577.4    3.507      51.857
2014   11       11    22   4    4.7392   577.3    3.507      51.811
2014   11       11    22   9    4.7368   577.1    3.506      51.765
2014   11       11    22  15    4.7345   576.9    3.506      51.719
2014   11       11    22  20    4.7322   576.8    3.506      51.672
2014   11       11    22  26    4.7298   576.6    3.505      51.625
2014   11       11    22  31    4.7276   576.4    3.505      51.578
2014   11       11    22  37    4.7253   576.3    3.504      51.531
2014   11       11    22  42    4.7230   576.1    3.504      51.483
2014   11       11    22  48    4.7207   575.9    3.503      51.435
2014   11       11    22  53    4.7183   575.8    3.503      51.386
2014   11       11    22  59    4.7160   575.6    3.502      51.338
2014   11       11    23   4    4.7138   575.4    3.501      51.289
2014   11       11    23  10    4.7115   575.3    3.501      51.239
2014   11       11    23  15    4.7093   575.1    3.500      51.190
2014   11       11    23  21    4.7069   574.9    3.499      51.140
2014   11       11    23  26    4.7047   574.7    3.499      51.090
2014   11       11    23  32    4.7025   574.6    3.498      51.039
2014   11       11    23  38    4.7003   574.4    3.497      50.988
2014   11       11    23  43    4.6980   574.2    3.497      50.937
2014   11       11    23  49    4.6958   574.0    3.496      50.885
2014   11       11    23  54    4.6934   573.9    3.495      50.833
2014   11       12     0   0    4.6912   573.7    3.494      50.780
2014   11       12     0   5    4.6890   573.5    3.493      50.728
2014   11       12     0  11    4.6868   573.3    3.492      50.675
2014   11       12     0  16    4.6846   573.2    3.491      50.621
2014   11       12     0  22    4.6823   573.0    3.491      50.568
2014   11       12     0  27    4.6802   572.8    3.490      50.514
2014   11       12     0  33    4.6779   572.6    3.489      50.459
2014   11       12     0  38    4.6758   572.5    3.488      50.405
2014   11       12     0  44    4.6735   572.3    3.487      50.350
2014   11       12     0  49    4.6713   572.1    3.486      50.294
2014   11       12     0  55    4.6690   571.9    3.485      50.239
2014   11       12     1   0    4.6669   571.7    3.484      50.183
2014   11       12     1   6    4.6647   571.5    3.483      50.127
2014   11       12     1  11    4.6624   571.4    3.481      50.070
2014   11       12     1  17    4.6603   571.2    3.480      50.014
2014   11       12     1  22    4.6580   571.0    3.479      49.957
2014   11       12     1  28    4.6559   570.8    3.478      49.900
2014   11       12     1  34    4.6537   570.6    3.477      49.842
2014   11       12     1  39    4.6516   570.4    3.476      49.785
2014   11       12     1  45    4.6494   570.2    3.475      49.728
2014   11       12     1  50    4.6472   570.0    3.474      49.670
2014   11       12     1  56    4.6449   569.8    3.473      49.613
2014   11       12     2   1    4.6428   569.6    3.472      49.555
2014   11       12     2   7    4.6407   569.4    3.471      49.498
2014   11       12     2  12    4.6385   569.2    3.470      49.441
2014   11       12     2  18    4.6364   569.0    3.470      49.384
2014   11       12     2  23    4.6343   568.8    3.469      49.327
2014   11       12     2  29    4.6322   568.6    3.468      49.271
2014   11       12     2  34    4.6301   568.4    3.467      49.215
2014   11       12     2  40    4.6281   568.2    3.467      49.160
2014   11       12     2  45    4.6260   568.0    3.466      49.105
2014   11       12     2  51    4.6240   567.7    3.466      49.051
