year    month   day   hour  minute  B_enl V_enl   n_enl       T_enl
[year] [month] [day] [hour][minute] [nT]  [km/s]  [cm-3]      [kK]
2014   11        9     0   2    6.0627   532.1    5.000      49.283
2014   11        9     0   7    6.0660   532.1    5.003      49.307
2014   11        9     0  12    6.0694   532.2    5.005      49.331
2014   11        9     0  17    6.0726   532.3    5.008      49.356
2014   11        9     0  23    6.0759   532.3    5.011      49.380
2014   11        9     0  28    6.0792   532.4    5.013      49.405
2014   11        9     0  33    6.0825   532.4    5.016      49.430
2014   11        9     0  39    6.0858   532.5    5.018      49.455
2014   11        9     0  44    6.0891   532.6    5.021      49.481
2014   11        9     0  49    6.0924   532.6    5.023      49.507
2014   11        9     0  54    6.0957   532.7    5.026      49.533
2014   11        9     1   0    6.0989   532.8    5.028      49.560
2014   11        9     1   5    6.1023   532.8    5.030      49.587
2014   11        9     1  10    6.1055   532.9    5.033      49.614
2014   11        9     1  16    6.1088   533.0    5.035      49.642
2014   11        9     1  21    6.1120   533.0    5.037      49.670
2014   11        9     1  26    6.1153   533.1    5.040      49.699
2014   11        9     1  31    6.1185   533.1    5.042      49.727
2014   11        9     1  37    6.1218   533.2    5.044      49.755
2014   11        9     1  42    6.1250   533.3    5.046      49.784
2014   11        9     1  47    6.1282   533.3    5.048      49.812
2014   11        9     1  53    6.1314   533.4    5.050      49.841
2014   11        9     1  58    6.1347   533.4    5.052      49.869
2014   11        9     2   3    6.1379   533.5    5.054      49.898
2014   11        9     2   8    6.1411   533.6    5.056      49.926
2014   11        9     2  14    6.1444   533.6    5.058      49.954
2014   11        9     2  19    6.1476   533.7    5.059      49.982
2014   11        9     2  24    6.1508   533.8    5.061      50.010
2014   11        9     2  30    6.1540   533.8    5.063      50.037
2014   11        9     2  35    6.1572   533.9    5.065      50.064
2014   11        9     2  40    6.1604   533.9    5.066      50.091
2014   11        9     2  45    6.1637   534.0    5.068      50.118
2014   11        9     2  51    6.1669   534.1    5.069      50.144
2014   11        9     2  56    6.1701   534.1    5.071      50.171
2014   11        9     3   1    6.1734   534.2    5.073      50.197
2014   11        9     3   7    6.1766   534.2    5.074      50.223
2014   11        9     3  12    6.1799   534.3    5.076      50.249
2014   11        9     3  17    6.1831   534.4    5.077      50.275
2014   11        9     3  22    6.1864   534.4    5.079      50.301
2014   11        9     3  28    6.1897   534.5    5.080      50.326
2014   11        9     3  33    6.1929   534.5    5.082      50.352
2014   11        9     3  38    6.1963   534.6    5.083      50.378
2014   11        9     3  44    6.1996   534.7    5.085      50.404
2014   11        9     3  49    6.2029   534.7    5.087      50.430
2014   11        9     3  54    6.2062   534.8    5.089      50.456
2014   11        9     3  59    6.2095   534.9    5.090      50.483
2014   11        9     4   5    6.2129   534.9    5.092      50.510
2014   11        9     4  10    6.2163   535.0    5.094      50.537
2014   11        9     4  15    6.2196   535.0    5.096      50.565
2014   11        9     4  21    6.2231   535.1    5.098      50.593
2014   11        9     4  26    6.2265   535.2    5.100      50.622
2014   11        9     4  31    6.2299   535.3    5.102      50.652
2014   11        9     4  37    6.2333   535.3    5.105      50.683
2014   11        9     4  42    6.2368   535.4    5.107      50.715
2014   11        9     4  47    6.2402   535.5    5.109      50.748
2014   11        9     4  52    6.2436   535.6    5.112      50.781
2014   11        9     4  58    6.2471   535.6    5.114      50.816
2014   11        9     5   3    6.2505   535.7    5.116      50.851
2014   11        9     5   8    6.2540   535.8    5.119      50.887
2014   11        9     5  14    6.2574   535.9    5.121      50.924
2014   11        9     5  19    6.2608   536.0    5.124      50.962
2014   11        9     5  24    6.2643   536.1    5.126      51.000
2014   11        9     5  29    6.2677   536.2    5.129      51.039
2014   11        9     5  35    6.2711   536.3    5.131      51.078
2014   11        9     5  40    6.2745   536.4    5.133      51.117
2014   11        9     5  45    6.2779   536.5    5.136      51.158
2014   11        9     5  51    6.2813   536.6    5.138      51.198
2014   11        9     5  56    6.2847   536.7    5.140      51.239
2014   11        9     6   1    6.2880   536.8    5.143      51.281
2014   11        9     6   6    6.2915   536.9    5.145      51.322
2014   11        9     6  12    6.2947   537.0    5.148      51.363
2014   11        9     6  17    6.2981   537.1    5.150      51.406
2014   11        9     6  22    6.3014   537.2    5.152      51.448
2014   11        9     6  28    6.3048   537.3    5.154      51.491
2014   11        9     6  33    6.3080   537.4    5.157      51.535
2014   11        9     6  38    6.3114   537.5    5.159      51.579
2014   11        9     6  43    6.3146   537.6    5.161      51.623
2014   11        9     6  49    6.3178   537.7    5.163      51.666
2014   11        9     6  54    6.3211   537.8    5.165      51.709
2014   11        9     6  59    6.3243   537.9    5.167      51.753
2014   11        9     7   5    6.3275   538.1    5.169      51.796
2014   11        9     7  10    6.3307   538.2    5.171      51.839
2014   11        9     7  15    6.3338   538.3    5.172      51.881
2014   11        9     7  20    6.3370   538.4    5.174      51.923
2014   11        9     7  26    6.3401   538.5    5.176      51.965
2014   11        9     7  31    6.3433   538.6    5.177      52.006
2014   11        9     7  36    6.3464   538.7    5.179      52.047
2014   11        9     7  42    6.3496   538.9    5.181      52.088
2014   11        9     7  47    6.3527   539.0    5.182      52.128
2014   11        9     7  52    6.3559   539.1    5.184      52.168
2014   11        9     7  57    6.3590   539.2    5.185      52.208
2014   11        9     8   3    6.3622   539.3    5.187      52.249
2014   11        9     8   8    6.3654   539.4    5.189      52.289
2014   11        9     8  13    6.3686   539.5    5.191      52.329
2014   11        9     8  19    6.3719   539.7    5.193      52.370
2014   11        9     8  24    6.3751   539.8    5.194      52.411
2014   11        9     8  29    6.3783   539.9    5.196      52.454
2014   11        9     8  34    6.3815   540.0    5.198      52.498
2014   11        9     8  40    6.3848   540.2    5.200      52.543
2014   11        9     8  45    6.3880   540.3    5.202      52.589
2014   11        9     8  50    6.3912   540.4    5.204      52.636
2014   11        9     8  56    6.3944   540.5    5.205      52.682
2014   11        9     9   1    6.3975   540.7    5.207      52.730
2014   11        9     9   6    6.4007   540.8    5.208      52.777
2014   11        9     9  11    6.4038   540.9    5.210      52.825
2014   11        9     9  17    6.4069   541.1    5.211      52.873
2014   11        9     9  22    6.4100   541.2    5.212      52.921
2014   11        9     9  27    6.4130   541.3    5.213      52.969
2014   11        9     9  33    6.4161   541.5    5.214      53.016
2014   11        9     9  38    6.4191   541.6    5.214      53.062
2014   11        9     9  43    6.4220   541.7    5.215      53.108
2014   11        9     9  48    6.4250   541.9    5.215      53.153
2014   11        9     9  54    6.4279   542.0    5.216      53.198
2014   11        9     9  59    6.4308   542.1    5.216      53.242
2014   11        9    10   4    6.4337   542.2    5.216      53.286
2014   11        9    10  10    6.4366   542.4    5.216      53.330
2014   11        9    10  15    6.4395   542.5    5.216      53.373
2014   11        9    10  20    6.4423   542.6    5.216      53.416
2014   11        9    10  25    6.4451   542.7    5.216      53.459
2014   11        9    10  31    6.4479   542.9    5.216      53.502
2014   11        9    10  36    6.4508   543.0    5.216      53.545
2014   11        9    10  41    6.4536   543.1    5.216      53.587
2014   11        9    10  47    6.4565   543.2    5.216      53.630
2014   11        9    10  52    6.4593   543.3    5.216      53.672
2014   11        9    10  57    6.4621   543.5    5.215      53.715
2014   11        9    11   2    6.4648   543.6    5.215      53.758
2014   11        9    11   8    6.4677   543.7    5.215      53.800
2014   11        9    11  13    6.4704   543.8    5.215      53.843
2014   11        9    11  18    6.4732   543.9    5.215      53.885
2014   11        9    11  24    6.4761   544.1    5.215      53.928
2014   11        9    11  29    6.4789   544.2    5.215      53.971
2014   11        9    11  34    6.4816   544.3    5.215      54.015
2014   11        9    11  39    6.4844   544.4    5.216      54.058
2014   11        9    11  45    6.4872   544.5    5.216      54.102
2014   11        9    11  50    6.4901   544.7    5.216      54.148
2014   11        9    11  55    6.4930   544.8    5.217      54.193
2014   11        9    12   1    6.4959   544.9    5.217      54.240
2014   11        9    12   6    6.4987   545.0    5.217      54.288
2014   11        9    12  11    6.5015   545.1    5.218      54.336
2014   11        9    12  16    6.5045   545.3    5.219      54.385
2014   11        9    12  22    6.5073   545.4    5.219      54.435
2014   11        9    12  27    6.5101   545.5    5.220      54.485
2014   11        9    12  32    6.5131   545.7    5.221      54.537
2014   11        9    12  38    6.5160   545.8    5.222      54.589
2014   11        9    12  43    6.5188   545.9    5.223      54.643
2014   11        9    12  48    6.5216   546.1    5.224      54.698
2014   11        9    12  53    6.5244   546.2    5.225      54.754
2014   11        9    12  59    6.5274   546.3    5.225      54.810
2014   11        9    13   4    6.5301   546.5    5.226      54.867
2014   11        9    13   9    6.5329   546.6    5.227      54.924
2014   11        9    13  15    6.5356   546.8    5.228      54.981
2014   11        9    13  20    6.5385   546.9    5.229      55.038
2014   11        9    13  25    6.5411   547.1    5.229      55.095
2014   11        9    13  30    6.5437   547.2    5.230      55.151
2014   11        9    13  36    6.5463   547.4    5.230      55.207
2014   11        9    13  41    6.5488   547.5    5.230      55.262
2014   11        9    13  46    6.5513   547.7    5.231      55.316
2014   11        9    13  52    6.5539   547.8    5.231      55.370
2014   11        9    13  57    6.5564   548.0    5.231      55.422
2014   11        9    14   2    6.5588   548.1    5.231      55.473
2014   11        9    14   7    6.5612   548.3    5.231      55.523
2014   11        9    14  13    6.5634   548.4    5.231      55.572
2014   11        9    14  18    6.5657   548.6    5.230      55.621
2014   11        9    14  23    6.5682   548.7    5.230      55.670
2014   11        9    14  29    6.5704   548.9    5.230      55.717
2014   11        9    14  34    6.5727   549.0    5.230      55.765
2014   11        9    14  39    6.5751   549.2    5.230      55.812
2014   11        9    14  44    6.5774   549.3    5.230      55.858
2014   11        9    14  50    6.5797   549.5    5.230      55.905
2014   11        9    14  55    6.5820   549.6    5.231      55.952
2014   11        9    15   0    6.5842   549.8    5.231      55.999
2014   11        9    15   6    6.5867   549.9    5.231      56.046
2014   11        9    15  11    6.5889   550.1    5.232      56.094
2014   11        9    15  16    6.5914   550.2    5.233      56.142
2014   11        9    15  21    6.5937   550.3    5.234      56.190
2014   11        9    15  27    6.5963   550.5    5.236      56.239
2014   11        9    15  32    6.5987   550.6    5.237      56.291
2014   11        9    15  37    6.6012   550.8    5.239      56.345
2014   11        9    15  43    6.6038   551.0    5.241      56.402
2014   11        9    15  48    6.6064   551.1    5.243      56.461
2014   11        9    15  53    6.6090   551.3    5.245      56.522
2014   11        9    15  58    6.6116   551.5    5.247      56.585
2014   11        9    16   4    6.6142   551.6    5.249      56.650
2014   11        9    16   9    6.6167   551.8    5.251      56.717
2014   11        9    16  14    6.6193   552.0    5.253      56.786
2014   11        9    16  20    6.6217   552.2    5.256      56.856
2014   11        9    16  25    6.6242   552.4    5.257      56.928
2014   11        9    16  30    6.6268   552.6    5.259      57.001
2014   11        9    16  35    6.6292   552.8    5.261      57.074
2014   11        9    16  41    6.6315   553.0    5.262      57.146
2014   11        9    16  46    6.6338   553.2    5.263      57.217
2014   11        9    16  51    6.6360   553.4    5.264      57.286
2014   11        9    16  57    6.6382   553.5    5.265      57.355
2014   11        9    17   2    6.6403   553.7    5.265      57.423
2014   11        9    17   7    6.6424   554.0    5.266      57.490
2014   11        9    17  12    6.6444   554.1    5.266      57.555
2014   11        9    17  18    6.6464   554.4    5.266      57.619
2014   11        9    17  23    6.6485   554.5    5.265      57.681
2014   11        9    17  28    6.6504   554.7    5.265      57.742
2014   11        9    17  34    6.6524   554.9    5.264      57.803
2014   11        9    17  39    6.6543   555.1    5.263      57.862
2014   11        9    17  44    6.6561   555.3    5.262      57.920
2014   11        9    17  49    6.6580   555.5    5.261      57.978
2014   11        9    17  55    6.6599   555.7    5.260      58.035
2014   11        9    18   0    6.6617   555.9    5.259      58.092
2014   11        9    18   5    6.6636   556.1    5.257      58.148
2014   11        9    18  11    6.6655   556.3    5.256      58.203
2014   11        9    18  16    6.6673   556.5    5.254      58.259
2014   11        9    18  21    6.6692   556.7    5.253      58.313
2014   11        9    18  26    6.6710   556.9    5.251      58.368
2014   11        9    18  32    6.6729   557.1    5.249      58.422
2014   11        9    18  37    6.6747   557.3    5.248      58.476
2014   11        9    18  42    6.6765   557.5    5.246      58.530
2014   11        9    18  48    6.6784   557.7    5.244      58.584
2014   11        9    18  53    6.6802   557.9    5.242      58.637
2014   11        9    18  58    6.6820   558.1    5.240      58.690
2014   11        9    19   3    6.6839   558.3    5.238      58.743
2014   11        9    19   9    6.6857   558.5    5.236      58.797
2014   11        9    19  14    6.6875   558.7    5.234      58.850
2014   11        9    19  19    6.6894   558.9    5.232      58.904
2014   11        9    19  25    6.6912   559.1    5.230      58.957
2014   11        9    19  30    6.6931   559.3    5.228      59.011
2014   11        9    19  35    6.6950   559.5    5.227      59.065
2014   11        9    19  41    6.6968   559.7    5.225      59.120
2014   11        9    19  46    6.6987   559.9    5.223      59.175
2014   11        9    19  51    6.7007   560.1    5.222      59.230
2014   11        9    19  56    6.7026   560.3    5.220      59.286
2014   11        9    20   2    6.7046   560.5    5.219      59.343
2014   11        9    20   7    6.7065   560.7    5.218      59.401
2014   11        9    20  12    6.7085   560.9    5.217      59.461
2014   11        9    20  18    6.7105   561.1    5.216      59.521
2014   11        9    20  23    6.7124   561.3    5.215      59.583
2014   11        9    20  28    6.7143   561.5    5.214      59.645
2014   11        9    20  33    6.7163   561.7    5.213      59.708
2014   11        9    20  39    6.7181   561.9    5.212      59.770
2014   11        9    20  44    6.7200   562.1    5.210      59.833
2014   11        9    20  49    6.7218   562.3    5.209      59.894
2014   11        9    20  55    6.7235   562.6    5.208      59.955
2014   11        9    21   0    6.7252   562.8    5.206      60.015
2014   11        9    21   5    6.7268   563.0    5.204      60.075
2014   11        9    21  10    6.7284   563.2    5.202      60.133
2014   11        9    21  16    6.7300   563.5    5.200      60.189
2014   11        9    21  21    6.7314   563.7    5.198      60.243
2014   11        9    21  26    6.7329   563.9    5.195      60.296
2014   11        9    21  32    6.7343   564.1    5.193      60.348
2014   11        9    21  37    6.7357   564.4    5.190      60.398
2014   11        9    21  42    6.7370   564.6    5.188      60.448
2014   11        9    21  47    6.7384   564.8    5.185      60.496
2014   11        9    21  53    6.7397   565.0    5.182      60.543
2014   11        9    21  58    6.7410   565.2    5.179      60.590
2014   11        9    22   3    6.7423   565.5    5.177      60.636
2014   11        9    22   9    6.7436   565.7    5.174      60.681
2014   11        9    22  14    6.7448   565.9    5.171      60.726
2014   11        9    22  19    6.7461   566.1    5.168      60.770
2014   11        9    22  24    6.7474   566.3    5.166      60.815
2014   11        9    22  30    6.7486   566.6    5.163      60.858
2014   11        9    22  35    6.7498   566.8    5.161      60.903
2014   11        9    22  40    6.7512   567.0    5.159      60.947
2014   11        9    22  46    6.7524   567.2    5.156      60.993
2014   11        9    22  51    6.7537   567.4    5.154      61.038
2014   11        9    22  56    6.7548   567.7    5.152      61.085
2014   11        9    23   1    6.7561   567.9    5.150      61.132
2014   11        9    23   7    6.7574   568.1    5.149      61.180
2014   11        9    23  12    6.7586   568.4    5.147      61.229
2014   11        9    23  17    6.7599   568.6    5.146      61.278
2014   11        9    23  23    6.7611   568.8    5.145      61.328
2014   11        9    23  28    6.7623   569.0    5.144      61.381
2014   11        9    23  33    6.7637   569.3    5.143      61.434
2014   11        9    23  38    6.7647   569.5    5.143      61.489
2014   11        9    23  44    6.7659   569.8    5.142      61.546
2014   11        9    23  49    6.7670   570.0    5.141      61.605
2014   11        9    23  54    6.7681   570.3    5.141      61.665
2014   11       10     0   0    6.7693   570.5    5.140      61.727
2014   11       10     0   5    6.7701   570.8    5.140      61.790
2014   11       10     0  10    6.7710   571.1    5.139      61.853
2014   11       10     0  15    6.7718   571.4    5.138      61.917
2014   11       10     0  21    6.7725   571.6    5.136      61.981
2014   11       10     0  26    6.7734   571.9    5.135      62.044
2014   11       10     0  31    6.7739   572.2    5.133      62.107
2014   11       10     0  37    6.7744   572.5    5.131      62.170
2014   11       10     0  42    6.7746   572.8    5.128      62.231
2014   11       10     0  47    6.7751   573.1    5.126      62.291
2014   11       10     0  52    6.7753   573.3    5.123      62.349
2014   11       10     0  58    6.7755   573.6    5.119      62.405
2014   11       10     1   3    6.7755   573.9    5.116      62.461
2014   11       10     1   8    6.7756   574.2    5.112      62.515
2014   11       10     1  14    6.7753   574.5    5.108      62.568
2014   11       10     1  19    6.7753   574.8    5.104      62.620
2014   11       10     1  24    6.7754   575.1    5.100      62.671
2014   11       10     1  29    6.7750   575.3    5.096      62.722
2014   11       10     1  35    6.7748   575.6    5.091      62.772
2014   11       10     1  40    6.7745   575.9    5.086      62.821
