year    month   day   hour  minute  B_enl V_enl   n_enl       T_enl
[year] [month] [day] [hour][minute] [nT]  [km/s]  [cm-3]      [kK]
2014   11       18     0   3    7.5104   559.4    4.409      61.456
2014   11       18     0   9    7.5088   559.5    4.406      61.481
2014   11       18     0  14    7.5073   559.6    4.403      61.505
2014   11       18     0  19    7.5057   559.7    4.399      61.529
2014   11       18     0  24    7.5042   559.8    4.396      61.553
2014   11       18     0  29    7.5025   559.9    4.393      61.577
2014   11       18     0  35    7.5009   560.0    4.389      61.600
2014   11       18     0  40    7.4993   560.1    4.386      61.624
2014   11       18     0  45    7.4977   560.2    4.383      61.648
2014   11       18     0  50    7.4960   560.3    4.380      61.672
2014   11       18     0  55    7.4943   560.4    4.377      61.696
2014   11       18     1   1    7.4926   560.5    4.374      61.720
2014   11       18     1   6    7.4908   560.6    4.371      61.744
2014   11       18     1  11    7.4890   560.7    4.368      61.768
2014   11       18     1  16    7.4872   560.8    4.365      61.792
2014   11       18     1  21    7.4853   560.9    4.362      61.816
2014   11       18     1  26    7.4835   561.0    4.359      61.840
2014   11       18     1  32    7.4815   561.2    4.356      61.865
2014   11       18     1  37    7.4796   561.3    4.353      61.889
2014   11       18     1  42    7.4777   561.4    4.350      61.913
2014   11       18     1  47    7.4756   561.5    4.348      61.937
2014   11       18     1  52    7.4736   561.6    4.345      61.961
2014   11       18     1  58    7.4715   561.7    4.342      61.985
2014   11       18     2   3    7.4695   561.8    4.340      62.009
2014   11       18     2   8    7.4673   561.9    4.337      62.033
2014   11       18     2  13    7.4652   562.0    4.334      62.057
2014   11       18     2  18    7.4631   562.1    4.332      62.081
2014   11       18     2  23    7.4609   562.2    4.329      62.105
2014   11       18     2  29    7.4586   562.3    4.327      62.128
2014   11       18     2  34    7.4565   562.4    4.324      62.152
2014   11       18     2  39    7.4542   562.5    4.322      62.175
2014   11       18     2  44    7.4520   562.6    4.319      62.198
2014   11       18     2  49    7.4497   562.7    4.317      62.221
2014   11       18     2  54    7.4474   562.8    4.314      62.244
2014   11       18     3   0    7.4451   562.9    4.312      62.267
2014   11       18     3   5    7.4428   563.0    4.309      62.290
2014   11       18     3  10    7.4405   563.1    4.307      62.312
2014   11       18     3  15    7.4381   563.2    4.304      62.334
2014   11       18     3  20    7.4358   563.3    4.302      62.356
2014   11       18     3  25    7.4335   563.4    4.299      62.378
2014   11       18     3  30    7.4311   563.5    4.296      62.400
2014   11       18     3  36    7.4287   563.6    4.294      62.421
2014   11       18     3  41    7.4263   563.7    4.291      62.443
2014   11       18     3  46    7.4239   563.8    4.289      62.465
2014   11       18     3  51    7.4215   563.9    4.286      62.487
2014   11       18     3  56    7.4191   564.0    4.283      62.509
2014   11       18     4   1    7.4168   564.1    4.280      62.531
2014   11       18     4   6    7.4143   564.2    4.278      62.553
2014   11       18     4  12    7.4119   564.3    4.275      62.576
2014   11       18     4  17    7.4095   564.4    4.272      62.599
2014   11       18     4  22    7.4071   564.5    4.269      62.622
2014   11       18     4  27    7.4048   564.6    4.266      62.645
2014   11       18     4  32    7.4024   564.7    4.263      62.669
2014   11       18     4  37    7.4000   564.7    4.260      62.692
2014   11       18     4  43    7.3976   564.8    4.257      62.716
2014   11       18     4  48    7.3952   564.9    4.254      62.740
2014   11       18     4  53    7.3928   565.0    4.251      62.765
2014   11       18     4  58    7.3905   565.1    4.248      62.789
2014   11       18     5   3    7.3881   565.2    4.245      62.814
2014   11       18     5   8    7.3858   565.3    4.242      62.838
2014   11       18     5  13    7.3834   565.4    4.239      62.863
2014   11       18     5  19    7.3811   565.5    4.236      62.888
2014   11       18     5  24    7.3787   565.6    4.232      62.912
2014   11       18     5  29    7.3765   565.6    4.229      62.937
2014   11       18     5  34    7.3741   565.7    4.226      62.961
2014   11       18     5  39    7.3718   565.8    4.223      62.986
2014   11       18     5  44    7.3694   565.9    4.220      63.010
2014   11       18     5  50    7.3672   566.0    4.216      63.035
2014   11       18     5  55    7.3648   566.1    4.213      63.059
2014   11       18     6   0    7.3626   566.2    4.210      63.083
2014   11       18     6   5    7.3602   566.2    4.207      63.107
2014   11       18     6  10    7.3579   566.3    4.203      63.131
2014   11       18     6  16    7.3556   566.4    4.200      63.155
2014   11       18     6  21    7.3533   566.5    4.197      63.178
2014   11       18     6  26    7.3510   566.6    4.194      63.202
2014   11       18     6  31    7.3488   566.7    4.190      63.226
2014   11       18     6  36    7.3464   566.8    4.187      63.249
2014   11       18     6  41    7.3441   566.8    4.184      63.273
2014   11       18     6  47    7.3418   566.9    4.181      63.296
2014   11       18     6  52    7.3396   567.0    4.178      63.319
2014   11       18     6  57    7.3373   567.1    4.175      63.343
2014   11       18     7   2    7.3350   567.2    4.172      63.366
2014   11       18     7   7    7.3328   567.3    4.169      63.389
2014   11       18     7  13    7.3305   567.3    4.166      63.412
2014   11       18     7  18    7.3282   567.4    4.163      63.436
2014   11       18     7  23    7.3259   567.5    4.160      63.459
2014   11       18     7  28    7.3236   567.6    4.157      63.483
2014   11       18     7  33    7.3214   567.7    4.154      63.506
2014   11       18     7  39    7.3190   567.8    4.151      63.530
2014   11       18     7  44    7.3167   567.8    4.148      63.554
2014   11       18     7  49    7.3145   567.9    4.146      63.577
2014   11       18     7  54    7.3121   568.0    4.143      63.601
2014   11       18     7  59    7.3097   568.1    4.140      63.625
2014   11       18     8   4    7.3073   568.2    4.138      63.650
2014   11       18     8  10    7.3049   568.3    4.135      63.674
2014   11       18     8  15    7.3024   568.3    4.133      63.698
2014   11       18     8  20    7.3000   568.4    4.131      63.722
2014   11       18     8  25    7.2975   568.5    4.128      63.747
2014   11       18     8  30    7.2950   568.6    4.126      63.771
2014   11       18     8  36    7.2924   568.7    4.124      63.796
2014   11       18     8  41    7.2898   568.8    4.121      63.820
2014   11       18     8  46    7.2872   568.8    4.119      63.845
2014   11       18     8  51    7.2846   568.9    4.117      63.870
2014   11       18     8  56    7.2819   569.0    4.115      63.894
2014   11       18     9   2    7.2792   569.1    4.113      63.919
2014   11       18     9   7    7.2765   569.2    4.111      63.943
2014   11       18     9  12    7.2737   569.3    4.109      63.968
2014   11       18     9  17    7.2710   569.4    4.107      63.992
2014   11       18     9  22    7.2682   569.4    4.105      64.016
2014   11       18     9  27    7.2654   569.5    4.103      64.040
2014   11       18     9  33    7.2626   569.6    4.101      64.064
2014   11       18     9  38    7.2597   569.7    4.099      64.087
2014   11       18     9  43    7.2568   569.8    4.097      64.110
2014   11       18     9  48    7.2540   569.9    4.095      64.132
2014   11       18     9  53    7.2510   569.9    4.093      64.154
2014   11       18     9  58    7.2481   570.0    4.091      64.176
2014   11       18    10   4    7.2452   570.1    4.089      64.197
2014   11       18    10   9    7.2423   570.2    4.087      64.217
2014   11       18    10  14    7.2394   570.3    4.084      64.237
2014   11       18    10  19    7.2364   570.3    4.082      64.257
2014   11       18    10  24    7.2334   570.4    4.080      64.275
2014   11       18    10  29    7.2305   570.5    4.078      64.294
2014   11       18    10  35    7.2276   570.5    4.075      64.312
2014   11       18    10  40    7.2246   570.6    4.073      64.329
2014   11       18    10  45    7.2216   570.7    4.070      64.347
2014   11       18    10  50    7.2187   570.8    4.068      64.363
2014   11       18    10  55    7.2157   570.8    4.065      64.380
2014   11       18    11   0    7.2128   570.9    4.063      64.395
2014   11       18    11   5    7.2099   571.0    4.060      64.411
2014   11       18    11  11    7.2070   571.0    4.058      64.426
2014   11       18    11  16    7.2040   571.1    4.055      64.441
2014   11       18    11  21    7.2011   571.2    4.053      64.456
2014   11       18    11  26    7.1982   571.2    4.050      64.470
2014   11       18    11  31    7.1952   571.3    4.047      64.484
2014   11       18    11  36    7.1923   571.4    4.044      64.498
2014   11       18    11  41    7.1894   571.4    4.042      64.512
2014   11       18    11  47    7.1865   571.5    4.039      64.525
2014   11       18    11  52    7.1836   571.6    4.036      64.538
2014   11       18    11  57    7.1807   571.6    4.033      64.552
2014   11       18    12   2    7.1778   571.7    4.031      64.565
2014   11       18    12   7    7.1749   571.8    4.028      64.578
2014   11       18    12  12    7.1719   571.8    4.025      64.590
2014   11       18    12  17    7.1690   571.9    4.022      64.603
2014   11       18    12  23    7.1662   571.9    4.019      64.615
2014   11       18    12  28    7.1632   572.0    4.016      64.628
2014   11       18    12  33    7.1603   572.1    4.013      64.640
2014   11       18    12  38    7.1574   572.1    4.010      64.653
2014   11       18    12  43    7.1545   572.2    4.007      64.665
2014   11       18    12  48    7.1516   572.2    4.005      64.677
2014   11       18    12  54    7.1487   572.3    4.002      64.690
2014   11       18    12  59    7.1458   572.3    3.999      64.702
2014   11       18    13   4    7.1429   572.4    3.996      64.715
2014   11       18    13   9    7.1400   572.5    3.993      64.727
2014   11       18    13  14    7.1371   572.5    3.990      64.740
2014   11       18    13  20    7.1342   572.6    3.987      64.752
2014   11       18    13  25    7.1314   572.6    3.984      64.765
2014   11       18    13  30    7.1285   572.7    3.981      64.778
2014   11       18    13  35    7.1256   572.7    3.979      64.792
2014   11       18    13  40    7.1228   572.8    3.976      64.805
2014   11       18    13  45    7.1199   572.8    3.973      64.819
2014   11       18    13  51    7.1170   572.9    3.970      64.833
2014   11       18    13  56    7.1142   572.9    3.968      64.847
2014   11       18    14   1    7.1113   573.0    3.965      64.862
2014   11       18    14   6    7.1085   573.1    3.962      64.877
2014   11       18    14  11    7.1057   573.1    3.960      64.892
2014   11       18    14  17    7.1029   573.2    3.957      64.908
2014   11       18    14  22    7.1001   573.2    3.955      64.924
2014   11       18    14  27    7.0973   573.3    3.952      64.940
2014   11       18    14  32    7.0945   573.3    3.950      64.957
2014   11       18    14  37    7.0917   573.4    3.948      64.974
2014   11       18    14  42    7.0889   573.4    3.945      64.991
2014   11       18    14  48    7.0861   573.5    3.943      65.009
2014   11       18    14  53    7.0833   573.5    3.941      65.027
2014   11       18    14  58    7.0806   573.6    3.939      65.046
2014   11       18    15   3    7.0778   573.6    3.937      65.065
2014   11       18    15   8    7.0750   573.7    3.935      65.084
2014   11       18    15  14    7.0723   573.7    3.933      65.104
2014   11       18    15  19    7.0695   573.8    3.931      65.124
2014   11       18    15  24    7.0667   573.8    3.929      65.144
2014   11       18    15  29    7.0639   573.9    3.927      65.165
2014   11       18    15  34    7.0611   573.9    3.926      65.186
2014   11       18    15  40    7.0583   574.0    3.924      65.207
2014   11       18    15  45    7.0554   574.1    3.922      65.228
2014   11       18    15  50    7.0526   574.1    3.921      65.249
2014   11       18    15  55    7.0497   574.2    3.919      65.271
2014   11       18    16   0    7.0469   574.2    3.917      65.292
2014   11       18    16   6    7.0440   574.3    3.916      65.313
2014   11       18    16  11    7.0411   574.3    3.914      65.335
2014   11       18    16  16    7.0382   574.4    3.913      65.356
2014   11       18    16  21    7.0353   574.4    3.911      65.377
2014   11       18    16  26    7.0324   574.5    3.910      65.399
2014   11       18    16  31    7.0295   574.5    3.908      65.420
2014   11       18    16  37    7.0265   574.6    3.907      65.440
2014   11       18    16  42    7.0236   574.6    3.905      65.461
2014   11       18    16  47    7.0206   574.7    3.904      65.481
2014   11       18    16  52    7.0177   574.7    3.902      65.501
2014   11       18    16  57    7.0147   574.7    3.901      65.520
2014   11       18    17   2    7.0118   574.8    3.899      65.538
2014   11       18    17   8    7.0088   574.8    3.898      65.557
2014   11       18    17  13    7.0059   574.9    3.896      65.575
2014   11       18    17  18    7.0029   574.9    3.894      65.592
2014   11       18    17  23    7.0000   575.0    3.893      65.609
2014   11       18    17  28    6.9971   575.0    3.891      65.625
2014   11       18    17  33    6.9942   575.0    3.889      65.640
2014   11       18    17  39    6.9913   575.1    3.888      65.655
2014   11       18    17  44    6.9884   575.1    3.886      65.670
2014   11       18    17  49    6.9855   575.1    3.884      65.684
2014   11       18    17  54    6.9826   575.2    3.883      65.697
2014   11       18    17  59    6.9798   575.2    3.881      65.710
2014   11       18    18   4    6.9770   575.2    3.879      65.722
2014   11       18    18  10    6.9741   575.3    3.877      65.734
2014   11       18    18  15    6.9713   575.3    3.875      65.745
2014   11       18    18  20    6.9685   575.3    3.874      65.756
2014   11       18    18  25    6.9657   575.4    3.872      65.766
2014   11       18    18  30    6.9628   575.4    3.870      65.775
2014   11       18    18  35    6.9600   575.4    3.868      65.784
2014   11       18    18  40    6.9572   575.5    3.866      65.793
2014   11       18    18  45    6.9544   575.5    3.864      65.801
2014   11       18    18  51    6.9515   575.5    3.862      65.808
2014   11       18    18  56    6.9487   575.6    3.861      65.816
2014   11       18    19   1    6.9459   575.6    3.859      65.822
2014   11       18    19   6    6.9430   575.6    3.857      65.828
2014   11       18    19  11    6.9401   575.6    3.855      65.834
2014   11       18    19  16    6.9374   575.7    3.853      65.840
2014   11       18    19  21    6.9345   575.7    3.851      65.845
2014   11       18    19  26    6.9316   575.7    3.849      65.850
2014   11       18    19  32    6.9288   575.7    3.847      65.854
2014   11       18    19  37    6.9260   575.8    3.845      65.859
2014   11       18    19  42    6.9230   575.8    3.844      65.863
2014   11       18    19  47    6.9203   575.8    3.842      65.867
2014   11       18    19  52    6.9174   575.8    3.840      65.871
2014   11       18    19  57    6.9145   575.9    3.838      65.875
2014   11       18    20   2    6.9116   575.9    3.836      65.879
2014   11       18    20   7    6.9088   575.9    3.834      65.883
2014   11       18    20  13    6.9059   575.9    3.832      65.887
2014   11       18    20  18    6.9030   575.9    3.831      65.891
2014   11       18    20  23    6.9002   576.0    3.829      65.896
2014   11       18    20  28    6.8974   576.0    3.827      65.901
2014   11       18    20  33    6.8944   576.0    3.825      65.905
2014   11       18    20  38    6.8917   576.0    3.823      65.911
2014   11       18    20  43    6.8888   576.0    3.822      65.916
2014   11       18    20  49    6.8859   576.1    3.820      65.922
2014   11       18    20  54    6.8831   576.1    3.818      65.928
2014   11       18    20  59    6.8803   576.1    3.816      65.935
2014   11       18    21   4    6.8775   576.1    3.815      65.942
2014   11       18    21   9    6.8747   576.1    3.813      65.949
2014   11       18    21  14    6.8719   576.2    3.811      65.957
2014   11       18    21  20    6.8692   576.2    3.810      65.965
2014   11       18    21  25    6.8664   576.2    3.808      65.974
2014   11       18    21  30    6.8636   576.2    3.806      65.983
2014   11       18    21  35    6.8608   576.3    3.805      65.993
2014   11       18    21  40    6.8581   576.3    3.803      66.003
2014   11       18    21  45    6.8554   576.3    3.801      66.013
2014   11       18    21  51    6.8526   576.3    3.800      66.024
2014   11       18    21  56    6.8499   576.3    3.798      66.035
2014   11       18    22   1    6.8472   576.4    3.797      66.046
2014   11       18    22   6    6.8445   576.4    3.795      66.058
2014   11       18    22  11    6.8418   576.4    3.794      66.070
2014   11       18    22  17    6.8391   576.4    3.792      66.082
2014   11       18    22  22    6.8364   576.4    3.790      66.094
2014   11       18    22  27    6.8337   576.5    3.789      66.106
2014   11       18    22  32    6.8310   576.5    3.787      66.118
2014   11       18    22  37    6.8283   576.5    3.786      66.130
2014   11       18    22  42    6.8256   576.5    3.784      66.142
2014   11       18    22  48    6.8229   576.5    3.782      66.154
2014   11       18    22  53    6.8202   576.5    3.781      66.166
2014   11       18    22  58    6.8175   576.6    3.779      66.178
2014   11       18    23   3    6.8148   576.6    3.778      66.189
2014   11       18    23   8    6.8121   576.6    3.776      66.201
2014   11       18    23  13    6.8095   576.6    3.774      66.213
2014   11       18    23  19    6.8069   576.6    3.773      66.224
2014   11       18    23  24    6.8042   576.6    3.771      66.235
2014   11       18    23  29    6.8015   576.7    3.769      66.246
2014   11       18    23  34    6.7989   576.7    3.768      66.256
2014   11       18    23  39    6.7962   576.7    3.766      66.266
2014   11       18    23  44    6.7935   576.7    3.764      66.275
2014   11       18    23  50    6.7909   576.7    3.763      66.285
2014   11       18    23  55    6.7883   576.7    3.761      66.294
2014   11       19     0   0    6.7855   576.7    3.759      66.302
2014   11       19     0   5    6.7830   576.8    3.758      66.311
2014   11       19     0  10    6.7803   576.8    3.756      66.319
2014   11       19     0  15    6.7776   576.8    3.754      66.327
2014   11       19     0  21    6.7750   576.8    3.753      66.334
2014   11       19     0  26    6.7724   576.8    3.751      66.341
2014   11       19     0  31    6.7698   576.8    3.749      66.348
2014   11       19     0  36    6.7672   576.8    3.747      66.355
2014   11       19     0  41    6.7646   576.8    3.746      66.361
2014   11       19     0  46    6.7620   576.8    3.744      66.368
2014   11       19     0  52    6.7594   576.8    3.743      66.374
2014   11       19     0  57    6.7568   576.8    3.741      66.380
2014   11       19     1   2    6.7542   576.9    3.739      66.385
2014   11       19     1   7    6.7517   576.9    3.738      66.391
