year    month   day   hour  minute  B_enl V_enl   n_enl       T_enl
[year] [month] [day] [hour][minute] [nT]  [km/s]  [cm-3]      [kK]
2014   11        4     0   5    6.4225   404.9    8.485      41.544
2014   11        4     0  10    6.4255   404.9    8.488      41.559
2014   11        4     0  16    6.4287   405.0    8.491      41.574
2014   11        4     0  21    6.4317   405.0    8.494      41.590
2014   11        4     0  26    6.4349   405.0    8.497      41.605
2014   11        4     0  32    6.4379   405.0    8.500      41.620
2014   11        4     0  37    6.4411   405.0    8.504      41.636
2014   11        4     0  43    6.4443   405.0    8.507      41.652
2014   11        4     0  48    6.4475   405.1    8.511      41.668
2014   11        4     0  54    6.4509   405.1    8.515      41.684
2014   11        4     0  59    6.4542   405.1    8.519      41.702
2014   11        4     1   4    6.4575   405.1    8.523      41.719
2014   11        4     1  10    6.4608   405.1    8.527      41.737
2014   11        4     1  15    6.4642   405.2    8.531      41.756
2014   11        4     1  21    6.4676   405.2    8.535      41.775
2014   11        4     1  26    6.4710   405.2    8.540      41.795
2014   11        4     1  32    6.4745   405.3    8.544      41.815
2014   11        4     1  37    6.4781   405.3    8.549      41.836
2014   11        4     1  43    6.4817   405.3    8.554      41.857
2014   11        4     1  48    6.4852   405.3    8.559      41.878
2014   11        4     1  54    6.4886   405.4    8.564      41.900
2014   11        4     1  59    6.4921   405.4    8.569      41.923
2014   11        4     2   4    6.4956   405.5    8.574      41.947
2014   11        4     2  10    6.4991   405.5    8.580      41.971
2014   11        4     2  15    6.5027   405.5    8.585      41.996
2014   11        4     2  21    6.5060   405.6    8.591      42.021
2014   11        4     2  26    6.5096   405.6    8.596      42.047
2014   11        4     2  32    6.5129   405.7    8.602      42.074
2014   11        4     2  37    6.5163   405.7    8.607      42.100
2014   11        4     2  43    6.5197   405.8    8.612      42.127
2014   11        4     2  48    6.5230   405.8    8.618      42.154
2014   11        4     2  54    6.5263   405.9    8.623      42.181
2014   11        4     2  59    6.5297   405.9    8.629      42.208
2014   11        4     3   5    6.5330   406.0    8.634      42.235
2014   11        4     3  10    6.5362   406.0    8.639      42.263
2014   11        4     3  15    6.5393   406.1    8.644      42.290
2014   11        4     3  21    6.5423   406.1    8.649      42.318
2014   11        4     3  26    6.5454   406.2    8.655      42.344
2014   11        4     3  32    6.5485   406.2    8.660      42.371
2014   11        4     3  37    6.5518   406.3    8.665      42.398
2014   11        4     3  43    6.5547   406.3    8.669      42.424
2014   11        4     3  48    6.5577   406.4    8.674      42.450
2014   11        4     3  54    6.5607   406.4    8.679      42.477
2014   11        4     3  59    6.5639   406.5    8.684      42.502
2014   11        4     4   5    6.5668   406.5    8.689      42.528
2014   11        4     4  10    6.5699   406.6    8.694      42.554
2014   11        4     4  16    6.5728   406.6    8.699      42.580
2014   11        4     4  21    6.5757   406.7    8.704      42.605
2014   11        4     4  27    6.5787   406.7    8.709      42.631
2014   11        4     4  32    6.5817   406.8    8.714      42.656
2014   11        4     4  38    6.5847   406.9    8.719      42.681
2014   11        4     4  43    6.5875   406.9    8.724      42.706
2014   11        4     4  48    6.5905   407.0    8.729      42.732
2014   11        4     4  54    6.5933   407.0    8.734      42.758
2014   11        4     4  59    6.5963   407.1    8.739      42.783
2014   11        4     5   5    6.5991   407.1    8.744      42.810
2014   11        4     5  10    6.6019   407.2    8.749      42.836
2014   11        4     5  16    6.6047   407.3    8.754      42.862
2014   11        4     5  21    6.6075   407.3    8.759      42.889
2014   11        4     5  27    6.6103   407.4    8.764      42.915
2014   11        4     5  32    6.6130   407.4    8.769      42.942
2014   11        4     5  38    6.6158   407.5    8.773      42.968
2014   11        4     5  43    6.6186   407.5    8.778      42.995
2014   11        4     5  49    6.6212   407.6    8.782      43.021
2014   11        4     5  54    6.6240   407.6    8.787      43.048
2014   11        4     6   0    6.6267   407.7    8.791      43.074
2014   11        4     6   5    6.6294   407.8    8.795      43.100
2014   11        4     6  10    6.6320   407.8    8.799      43.126
2014   11        4     6  16    6.6348   407.9    8.803      43.152
2014   11        4     6  21    6.6374   407.9    8.807      43.177
2014   11        4     6  27    6.6401   408.0    8.811      43.202
2014   11        4     6  32    6.6428   408.0    8.814      43.226
2014   11        4     6  38    6.6455   408.1    8.817      43.249
2014   11        4     6  43    6.6481   408.1    8.821      43.272
2014   11        4     6  49    6.6508   408.2    8.824      43.295
2014   11        4     6  54    6.6535   408.3    8.826      43.317
2014   11        4     7   0    6.6562   408.3    8.829      43.339
2014   11        4     7   5    6.6589   408.4    8.832      43.360
2014   11        4     7  11    6.6615   408.4    8.834      43.381
2014   11        4     7  16    6.6642   408.5    8.836      43.401
2014   11        4     7  21    6.6669   408.5    8.838      43.421
2014   11        4     7  27    6.6696   408.6    8.840      43.440
2014   11        4     7  32    6.6723   408.6    8.842      43.459
2014   11        4     7  38    6.6750   408.7    8.844      43.477
2014   11        4     7  43    6.6777   408.7    8.846      43.495
2014   11        4     7  49    6.6804   408.8    8.847      43.512
2014   11        4     7  54    6.6831   408.8    8.848      43.529
2014   11        4     7  59    6.6858   408.9    8.849      43.546
2014   11        4     8   5    6.6884   408.9    8.851      43.562
2014   11        4     8  10    6.6912   409.0    8.852      43.578
2014   11        4     8  16    6.6939   409.1    8.852      43.593
2014   11        4     8  21    6.6965   409.1    8.853      43.608
2014   11        4     8  27    6.6992   409.2    8.854      43.623
2014   11        4     8  32    6.7019   409.2    8.854      43.637
2014   11        4     8  38    6.7046   409.3    8.855      43.651
2014   11        4     8  43    6.7072   409.3    8.855      43.665
2014   11        4     8  48    6.7099   409.4    8.855      43.678
2014   11        4     8  54    6.7125   409.4    8.856      43.692
2014   11        4     8  59    6.7152   409.5    8.856      43.704
2014   11        4     9   5    6.7177   409.5    8.856      43.717
2014   11        4     9  10    6.7204   409.6    8.856      43.729
2014   11        4     9  16    6.7230   409.6    8.856      43.741
2014   11        4     9  21    6.7256   409.7    8.855      43.753
2014   11        4     9  27    6.7282   409.7    8.855      43.765
2014   11        4     9  32    6.7308   409.8    8.855      43.776
2014   11        4     9  38    6.7334   409.8    8.855      43.787
2014   11        4     9  43    6.7360   409.9    8.854      43.798
2014   11        4     9  49    6.7386   410.0    8.854      43.809
2014   11        4     9  54    6.7411   410.0    8.854      43.820
2014   11        4     9  59    6.7437   410.1    8.853      43.831
2014   11        4    10   5    6.7463   410.1    8.853      43.841
2014   11        4    10  10    6.7488   410.2    8.853      43.852
2014   11        4    10  16    6.7514   410.2    8.853      43.862
2014   11        4    10  21    6.7539   410.3    8.852      43.873
2014   11        4    10  27    6.7565   410.3    8.852      43.883
2014   11        4    10  32    6.7591   410.4    8.852      43.894
2014   11        4    10  38    6.7616   410.4    8.852      43.905
2014   11        4    10  43    6.7642   410.5    8.852      43.915
2014   11        4    10  49    6.7668   410.5    8.852      43.926
2014   11        4    10  54    6.7693   410.6    8.852      43.937
2014   11        4    11   0    6.7720   410.6    8.852      43.948
2014   11        4    11   5    6.7745   410.7    8.853      43.959
2014   11        4    11  10    6.7770   410.7    8.853      43.970
2014   11        4    11  16    6.7796   410.8    8.854      43.982
2014   11        4    11  21    6.7822   410.9    8.855      43.993
2014   11        4    11  27    6.7848   410.9    8.855      44.005
2014   11        4    11  32    6.7874   411.0    8.856      44.017
2014   11        4    11  38    6.7899   411.0    8.857      44.030
2014   11        4    11  43    6.7925   411.1    8.859      44.043
2014   11        4    11  49    6.7951   411.1    8.860      44.056
2014   11        4    11  54    6.7977   411.2    8.862      44.069
2014   11        4    12   0    6.8004   411.3    8.863      44.082
2014   11        4    12   5    6.8028   411.3    8.865      44.096
2014   11        4    12  11    6.8054   411.4    8.867      44.111
2014   11        4    12  16    6.8080   411.4    8.869      44.126
2014   11        4    12  22    6.8105   411.5    8.872      44.141
2014   11        4    12  27    6.8131   411.6    8.874      44.157
2014   11        4    12  33    6.8155   411.6    8.876      44.174
2014   11        4    12  38    6.8182   411.7    8.879      44.192
2014   11        4    12  43    6.8206   411.7    8.882      44.210
2014   11        4    12  49    6.8231   411.8    8.884      44.228
2014   11        4    12  54    6.8256   411.9    8.887      44.247
2014   11        4    13   0    6.8282   411.9    8.890      44.266
2014   11        4    13   5    6.8307   412.0    8.893      44.286
2014   11        4    13  11    6.8331   412.1    8.897      44.306
2014   11        4    13  16    6.8356   412.1    8.900      44.327
2014   11        4    13  22    6.8381   412.2    8.903      44.348
2014   11        4    13  27    6.8407   412.3    8.906      44.370
2014   11        4    13  33    6.8433   412.3    8.910      44.392
2014   11        4    13  38    6.8458   412.4    8.913      44.414
2014   11        4    13  44    6.8484   412.5    8.917      44.436
2014   11        4    13  49    6.8509   412.5    8.920      44.459
2014   11        4    13  55    6.8535   412.6    8.924      44.482
2014   11        4    14   0    6.8561   412.7    8.927      44.505
2014   11        4    14   5    6.8588   412.8    8.931      44.528
2014   11        4    14  11    6.8616   412.8    8.935      44.552
2014   11        4    14  16    6.8643   412.9    8.939      44.575
2014   11        4    14  22    6.8670   413.0    8.943      44.600
2014   11        4    14  27    6.8697   413.1    8.946      44.625
2014   11        4    14  33    6.8724   413.1    8.950      44.650
2014   11        4    14  38    6.8751   413.2    8.954      44.676
2014   11        4    14  44    6.8780   413.3    8.957      44.702
2014   11        4    14  49    6.8807   413.4    8.961      44.729
2014   11        4    14  54    6.8835   413.5    8.965      44.755
2014   11        4    15   0    6.8861   413.6    8.968      44.782
2014   11        4    15   5    6.8890   413.6    8.971      44.809
2014   11        4    15  11    6.8916   413.7    8.975      44.835
2014   11        4    15  16    6.8944   413.8    8.978      44.862
2014   11        4    15  22    6.8970   413.9    8.981      44.888
2014   11        4    15  27    6.8997   414.0    8.984      44.915
2014   11        4    15  32    6.9023   414.1    8.986      44.941
2014   11        4    15  38    6.9050   414.2    8.989      44.967
2014   11        4    15  43    6.9076   414.2    8.991      44.993
2014   11        4    15  49    6.9102   414.3    8.994      45.018
2014   11        4    15  54    6.9128   414.4    8.996      45.043
2014   11        4    16   0    6.9153   414.5    8.998      45.068
2014   11        4    16   5    6.9178   414.6    9.000      45.092
2014   11        4    16  11    6.9204   414.7    9.002      45.115
2014   11        4    16  16    6.9229   414.8    9.004      45.138
2014   11        4    16  22    6.9253   414.9    9.006      45.161
2014   11        4    16  27    6.9278   414.9    9.007      45.184
2014   11        4    16  32    6.9302   415.0    9.009      45.207
2014   11        4    16  38    6.9326   415.1    9.010      45.230
2014   11        4    16  43    6.9351   415.2    9.012      45.253
2014   11        4    16  49    6.9374   415.3    9.013      45.275
2014   11        4    16  54    6.9398   415.4    9.014      45.298
2014   11        4    17   0    6.9422   415.5    9.015      45.320
2014   11        4    17   5    6.9445   415.6    9.016      45.342
2014   11        4    17  11    6.9469   415.7    9.016      45.364
2014   11        4    17  16    6.9492   415.7    9.017      45.386
2014   11        4    17  22    6.9516   415.8    9.017      45.407
2014   11        4    17  27    6.9539   415.9    9.017      45.428
2014   11        4    17  33    6.9562   416.0    9.017      45.449
2014   11        4    17  38    6.9585   416.1    9.017      45.470
2014   11        4    17  44    6.9608   416.2    9.017      45.490
2014   11        4    17  49    6.9631   416.3    9.016      45.510
2014   11        4    17  54    6.9653   416.4    9.016      45.530
2014   11        4    18   0    6.9676   416.5    9.015      45.549
2014   11        4    18   5    6.9699   416.5    9.014      45.567
2014   11        4    18  11    6.9722   416.6    9.013      45.585
2014   11        4    18  16    6.9744   416.7    9.012      45.602
2014   11        4    18  22    6.9766   416.8    9.010      45.619
2014   11        4    18  27    6.9788   416.9    9.009      45.636
2014   11        4    18  33    6.9810   417.0    9.007      45.651
2014   11        4    18  38    6.9832   417.1    9.005      45.667
2014   11        4    18  44    6.9855   417.2    9.004      45.682
2014   11        4    18  49    6.9876   417.3    9.002      45.696
2014   11        4    18  55    6.9898   417.3    9.000      45.710
2014   11        4    19   0    6.9919   417.4    8.998      45.724
2014   11        4    19   5    6.9941   417.5    8.995      45.737
2014   11        4    19  11    6.9962   417.6    8.993      45.749
2014   11        4    19  16    6.9984   417.7    8.991      45.761
2014   11        4    19  22    7.0005   417.8    8.988      45.773
2014   11        4    19  27    7.0026   417.9    8.986      45.784
2014   11        4    19  33    7.0047   418.0    8.983      45.795
2014   11        4    19  38    7.0068   418.1    8.981      45.806
2014   11        4    19  44    7.0089   418.1    8.978      45.816
2014   11        4    19  49    7.0110   418.2    8.975      45.826
2014   11        4    19  55    7.0130   418.3    8.973      45.836
2014   11        4    20   0    7.0151   418.4    8.970      45.846
2014   11        4    20   6    7.0172   418.5    8.967      45.855
2014   11        4    20  11    7.0193   418.6    8.965      45.864
2014   11        4    20  17    7.0213   418.7    8.962      45.873
2014   11        4    20  22    7.0234   418.8    8.960      45.882
2014   11        4    20  28    7.0255   418.8    8.957      45.891
2014   11        4    20  33    7.0276   418.9    8.955      45.899
2014   11        4    20  39    7.0297   419.0    8.952      45.908
2014   11        4    20  44    7.0318   419.1    8.950      45.917
2014   11        4    20  49    7.0340   419.2    8.948      45.926
2014   11        4    20  55    7.0361   419.3    8.946      45.935
2014   11        4    21   0    7.0382   419.4    8.944      45.945
2014   11        4    21   6    7.0404   419.5    8.942      45.954
2014   11        4    21  11    7.0426   419.5    8.940      45.964
2014   11        4    21  17    7.0448   419.6    8.939      45.975
2014   11        4    21  22    7.0470   419.7    8.937      45.985
2014   11        4    21  28    7.0492   419.8    8.936      45.996
2014   11        4    21  33    7.0515   419.9    8.935      46.008
2014   11        4    21  39    7.0538   420.0    8.934      46.019
2014   11        4    21  44    7.0560   420.1    8.934      46.032
2014   11        4    21  49    7.0583   420.2    8.933      46.045
2014   11        4    21  55    7.0606   420.3    8.933      46.059
2014   11        4    22   0    7.0630   420.4    8.933      46.074
2014   11        4    22   6    7.0652   420.5    8.932      46.090
2014   11        4    22  11    7.0674   420.6    8.932      46.106
2014   11        4    22  17    7.0698   420.7    8.932      46.123
2014   11        4    22  22    7.0720   420.8    8.932      46.140
2014   11        4    22  28    7.0743   420.9    8.933      46.158
2014   11        4    22  33    7.0765   421.0    8.933      46.176
2014   11        4    22  38    7.0788   421.1    8.933      46.194
2014   11        4    22  44    7.0810   421.2    8.933      46.213
2014   11        4    22  49    7.0831   421.3    8.934      46.232
2014   11        4    22  55    7.0853   421.4    8.934      46.251
2014   11        4    23   0    7.0874   421.6    8.935      46.271
2014   11        4    23   6    7.0897   421.7    8.935      46.291
2014   11        4    23  11    7.0917   421.8    8.936      46.311
2014   11        4    23  17    7.0940   421.9    8.936      46.330
2014   11        4    23  22    7.0961   422.0    8.937      46.350
2014   11        4    23  27    7.0980   422.1    8.938      46.370
2014   11        4    23  33    7.1001   422.2    8.939      46.390
2014   11        4    23  38    7.1023   422.3    8.940      46.410
2014   11        4    23  44    7.1043   422.4    8.941      46.431
2014   11        4    23  49    7.1064   422.5    8.942      46.452
2014   11        4    23  55    7.1086   422.6    8.944      46.474
2014   11        5     0   0    7.1107   422.7    8.945      46.497
2014   11        5     0   6    7.1128   422.8    8.947      46.520
2014   11        5     0  11    7.1150   422.9    8.948      46.544
2014   11        5     0  17    7.1171   423.0    8.950      46.568
2014   11        5     0  22    7.1192   423.1    8.952      46.593
2014   11        5     0  28    7.1215   423.2    8.954      46.618
2014   11        5     0  33    7.1236   423.4    8.956      46.645
2014   11        5     0  39    7.1259   423.5    8.958      46.672
2014   11        5     0  44    7.1283   423.6    8.961      46.701
2014   11        5     0  49    7.1307   423.7    8.963      46.730
2014   11        5     0  55    7.1330   423.8    8.965      46.760
2014   11        5     1   0    7.1354   423.9    8.968      46.791
2014   11        5     1   6    7.1379   424.0    8.970      46.821
2014   11        5     1  11    7.1403   424.1    8.973      46.853
2014   11        5     1  17    7.1428   424.3    8.975      46.884
2014   11        5     1  22    7.1453   424.4    8.978      46.915
2014   11        5     1  28    7.1478   424.5    8.980      46.947
2014   11        5     1  33    7.1503   424.6    8.982      46.980
2014   11        5     1  39    7.1528   424.8    8.985      47.014
2014   11        5     1  44    7.1554   424.9    8.987      47.048
2014   11        5     1  50    7.1579   425.0    8.989      47.082
2014   11        5     1  55    7.1604   425.1    8.991      47.117
2014   11        5     2   0    7.1629   425.3    8.992      47.151
2014   11        5     2   6    7.1653   425.4    8.994      47.184
2014   11        5     2  11    7.1677   425.5    8.995      47.218
2014   11        5     2  17    7.1701   425.7    8.996      47.251
2014   11        5     2  22    7.1725   425.8    8.996      47.283
2014   11        5     2  28    7.1748   425.9    8.996      47.314
2014   11        5     2  33    7.1771   426.1    8.997      47.345
