year    month   day   hour  minute  B_enl V_enl   n_enl       T_enl
[year] [month] [day] [hour][minute] [nT]  [km/s]  [cm-3]      [kK]
2014   11        8     0   2    6.0147   557.2    4.309      50.090
2014   11        8     0   7    6.0154   557.1    4.310      50.091
2014   11        8     0  13    6.0162   557.1    4.311      50.092
2014   11        8     0  18    6.0169   557.1    4.312      50.093
2014   11        8     0  23    6.0177   557.1    4.313      50.095
2014   11        8     0  28    6.0185   557.0    4.314      50.096
2014   11        8     0  33    6.0193   557.0    4.315      50.099
2014   11        8     0  38    6.0201   557.0    4.316      50.101
2014   11        8     0  44    6.0209   557.0    4.318      50.103
2014   11        8     0  49    6.0217   557.0    4.319      50.106
2014   11        8     0  54    6.0225   556.9    4.320      50.108
2014   11        8     0  59    6.0233   556.9    4.321      50.111
2014   11        8     1   4    6.0241   556.9    4.322      50.114
2014   11        8     1   9    6.0250   556.9    4.324      50.117
2014   11        8     1  14    6.0258   556.9    4.325      50.119
2014   11        8     1  20    6.0266   556.8    4.326      50.122
2014   11        8     1  25    6.0274   556.8    4.327      50.125
2014   11        8     1  30    6.0282   556.8    4.329      50.128
2014   11        8     1  35    6.0291   556.8    4.330      50.130
2014   11        8     1  40    6.0299   556.8    4.331      50.133
2014   11        8     1  45    6.0308   556.8    4.332      50.136
2014   11        8     1  51    6.0316   556.7    4.333      50.138
2014   11        8     1  56    6.0325   556.7    4.335      50.140
2014   11        8     2   1    6.0332   556.7    4.336      50.142
2014   11        8     2   6    6.0341   556.7    4.337      50.144
2014   11        8     2  11    6.0350   556.7    4.338      50.146
2014   11        8     2  16    6.0359   556.6    4.339      50.148
2014   11        8     2  22    6.0366   556.6    4.341      50.149
2014   11        8     2  27    6.0376   556.6    4.342      50.150
2014   11        8     2  32    6.0385   556.6    4.343      50.151
2014   11        8     2  37    6.0393   556.6    4.344      50.153
2014   11        8     2  42    6.0401   556.5    4.346      50.153
2014   11        8     2  47    6.0411   556.5    4.347      50.154
2014   11        8     2  53    6.0420   556.5    4.348      50.155
2014   11        8     2  58    6.0429   556.5    4.349      50.155
2014   11        8     3   3    6.0437   556.5    4.351      50.156
2014   11        8     3   8    6.0446   556.5    4.352      50.156
2014   11        8     3  13    6.0455   556.4    4.353      50.156
2014   11        8     3  18    6.0465   556.4    4.354      50.156
2014   11        8     3  24    6.0475   556.4    4.356      50.157
2014   11        8     3  29    6.0484   556.4    4.357      50.157
2014   11        8     3  34    6.0494   556.3    4.359      50.157
2014   11        8     3  39    6.0504   556.3    4.360      50.157
2014   11        8     3  44    6.0514   556.3    4.361      50.158
2014   11        8     3  49    6.0525   556.3    4.363      50.158
2014   11        8     3  54    6.0535   556.3    4.364      50.159
2014   11        8     4   0    6.0545   556.2    4.366      50.159
2014   11        8     4   5    6.0556   556.2    4.367      50.160
2014   11        8     4  10    6.0568   556.2    4.369      50.161
2014   11        8     4  15    6.0580   556.2    4.370      50.163
2014   11        8     4  20    6.0590   556.2    4.372      50.164
2014   11        8     4  25    6.0602   556.2    4.374      50.166
2014   11        8     4  31    6.0614   556.1    4.375      50.167
2014   11        8     4  36    6.0625   556.1    4.377      50.169
2014   11        8     4  41    6.0638   556.1    4.378      50.171
2014   11        8     4  46    6.0650   556.1    4.380      50.173
2014   11        8     4  51    6.0662   556.1    4.381      50.175
2014   11        8     4  56    6.0674   556.1    4.383      50.177
2014   11        8     5   2    6.0687   556.0    4.384      50.179
2014   11        8     5   7    6.0699   556.0    4.386      50.181
2014   11        8     5  12    6.0712   556.0    4.388      50.183
2014   11        8     5  17    6.0726   556.0    4.389      50.185
2014   11        8     5  22    6.0738   556.0    4.391      50.187
2014   11        8     5  27    6.0751   556.0    4.392      50.189
2014   11        8     5  33    6.0764   555.9    4.394      50.191
2014   11        8     5  38    6.0778   555.9    4.396      50.193
2014   11        8     5  43    6.0792   555.9    4.397      50.195
2014   11        8     5  48    6.0804   555.9    4.399      50.198
2014   11        8     5  53    6.0818   555.9    4.400      50.200
2014   11        8     5  58    6.0833   555.9    4.402      50.203
2014   11        8     6   4    6.0847   555.9    4.404      50.206
2014   11        8     6   9    6.0860   555.8    4.406      50.209
2014   11        8     6  14    6.0874   555.8    4.408      50.212
2014   11        8     6  19    6.0890   555.8    4.409      50.216
2014   11        8     6  24    6.0904   555.8    4.411      50.220
2014   11        8     6  29    6.0919   555.8    4.413      50.224
2014   11        8     6  34    6.0934   555.8    4.415      50.229
2014   11        8     6  40    6.0949   555.8    4.417      50.234
2014   11        8     6  45    6.0964   555.8    4.419      50.240
2014   11        8     6  50    6.0979   555.8    4.422      50.245
2014   11        8     6  55    6.0994   555.7    4.424      50.252
2014   11        8     7   0    6.1011   555.7    4.426      50.258
2014   11        8     7   5    6.1026   555.7    4.428      50.266
2014   11        8     7  11    6.1042   555.7    4.431      50.273
2014   11        8     7  16    6.1058   555.7    4.433      50.281
2014   11        8     7  21    6.1074   555.7    4.436      50.289
2014   11        8     7  26    6.1091   555.7    4.438      50.298
2014   11        8     7  31    6.1107   555.7    4.441      50.307
2014   11        8     7  36    6.1123   555.7    4.443      50.316
2014   11        8     7  42    6.1139   555.7    4.446      50.326
2014   11        8     7  47    6.1156   555.7    4.448      50.336
2014   11        8     7  52    6.1172   555.7    4.451      50.346
2014   11        8     7  57    6.1189   555.7    4.454      50.357
2014   11        8     8   2    6.1205   555.7    4.456      50.368
2014   11        8     8   7    6.1221   555.7    4.459      50.379
2014   11        8     8  13    6.1238   555.7    4.462      50.391
2014   11        8     8  18    6.1253   555.7    4.464      50.402
2014   11        8     8  23    6.1270   555.7    4.467      50.414
2014   11        8     8  28    6.1285   555.7    4.469      50.425
2014   11        8     8  33    6.1302   555.7    4.472      50.437
2014   11        8     8  38    6.1317   555.7    4.474      50.449
2014   11        8     8  44    6.1334   555.7    4.477      50.460
2014   11        8     8  49    6.1349   555.7    4.479      50.472
2014   11        8     8  54    6.1365   555.7    4.481      50.483
2014   11        8     8  59    6.1380   555.7    4.484      50.495
2014   11        8     9   4    6.1396   555.7    4.486      50.506
2014   11        8     9   9    6.1412   555.7    4.488      50.517
2014   11        8     9  14    6.1428   555.7    4.490      50.528
2014   11        8     9  20    6.1444   555.7    4.492      50.539
2014   11        8     9  25    6.1459   555.7    4.495      50.550
2014   11        8     9  30    6.1474   555.7    4.497      50.561
2014   11        8     9  35    6.1491   555.7    4.499      50.571
2014   11        8     9  40    6.1507   555.7    4.501      50.582
2014   11        8     9  45    6.1522   555.7    4.503      50.592
2014   11        8     9  51    6.1538   555.7    4.505      50.602
2014   11        8     9  56    6.1554   555.7    4.507      50.612
2014   11        8    10   1    6.1570   555.7    4.509      50.623
2014   11        8    10   6    6.1586   555.7    4.511      50.633
2014   11        8    10  11    6.1602   555.7    4.513      50.644
2014   11        8    10  16    6.1619   555.7    4.515      50.654
2014   11        8    10  22    6.1635   555.7    4.517      50.665
2014   11        8    10  27    6.1651   555.7    4.518      50.675
2014   11        8    10  32    6.1667   555.7    4.520      50.686
2014   11        8    10  37    6.1684   555.7    4.522      50.697
2014   11        8    10  42    6.1701   555.7    4.524      50.707
2014   11        8    10  47    6.1717   555.7    4.525      50.717
2014   11        8    10  53    6.1734   555.7    4.527      50.728
2014   11        8    10  58    6.1751   555.7    4.529      50.738
2014   11        8    11   3    6.1768   555.7    4.530      50.749
2014   11        8    11   8    6.1784   555.7    4.532      50.759
2014   11        8    11  13    6.1802   555.7    4.534      50.769
2014   11        8    11  18    6.1819   555.7    4.535      50.779
2014   11        8    11  24    6.1836   555.7    4.537      50.789
2014   11        8    11  29    6.1854   555.7    4.538      50.799
2014   11        8    11  34    6.1871   555.7    4.540      50.808
2014   11        8    11  39    6.1889   555.7    4.541      50.818
2014   11        8    11  44    6.1906   555.7    4.543      50.828
2014   11        8    11  49    6.1924   555.7    4.545      50.837
2014   11        8    11  55    6.1941   555.7    4.546      50.847
2014   11        8    12   0    6.1959   555.8    4.548      50.856
2014   11        8    12   5    6.1977   555.8    4.549      50.866
2014   11        8    12  10    6.1995   555.8    4.551      50.876
2014   11        8    12  15    6.2012   555.8    4.552      50.885
2014   11        8    12  20    6.2030   555.8    4.554      50.895
2014   11        8    12  25    6.2048   555.8    4.555      50.904
2014   11        8    12  31    6.2066   555.8    4.557      50.913
2014   11        8    12  36    6.2084   555.8    4.558      50.923
2014   11        8    12  41    6.2102   555.8    4.560      50.932
2014   11        8    12  46    6.2120   555.9    4.562      50.941
2014   11        8    12  51    6.2138   555.9    4.563      50.951
2014   11        8    12  56    6.2156   555.9    4.565      50.960
2014   11        8    13   2    6.2175   555.9    4.566      50.969
2014   11        8    13   7    6.2193   555.9    4.568      50.978
2014   11        8    13  12    6.2211   555.9    4.569      50.988
2014   11        8    13  17    6.2229   556.0    4.571      50.997
2014   11        8    13  22    6.2247   556.0    4.573      51.006
2014   11        8    13  27    6.2266   556.0    4.574      51.015
2014   11        8    13  33    6.2284   556.0    4.576      51.025
2014   11        8    13  38    6.2302   556.0    4.577      51.034
2014   11        8    13  43    6.2320   556.0    4.579      51.043
2014   11        8    13  48    6.2339   556.0    4.581      51.052
2014   11        8    13  53    6.2357   556.1    4.583      51.062
2014   11        8    13  58    6.2376   556.1    4.584      51.071
2014   11        8    14   4    6.2394   556.1    4.586      51.081
2014   11        8    14   9    6.2413   556.1    4.588      51.090
2014   11        8    14  14    6.2432   556.1    4.590      51.100
2014   11        8    14  19    6.2450   556.2    4.591      51.110
2014   11        8    14  24    6.2469   556.2    4.593      51.120
2014   11        8    14  29    6.2488   556.2    4.595      51.130
2014   11        8    14  35    6.2507   556.2    4.597      51.140
2014   11        8    14  40    6.2526   556.2    4.599      51.151
2014   11        8    14  45    6.2544   556.3    4.601      51.161
2014   11        8    14  50    6.2563   556.3    4.603      51.172
2014   11        8    14  55    6.2582   556.3    4.605      51.184
2014   11        8    15   0    6.2601   556.3    4.607      51.195
2014   11        8    15   5    6.2620   556.3    4.609      51.207
2014   11        8    15  11    6.2639   556.3    4.612      51.219
2014   11        8    15  16    6.2658   556.4    4.614      51.231
2014   11        8    15  21    6.2677   556.4    4.616      51.244
2014   11        8    15  26    6.2696   556.4    4.618      51.257
2014   11        8    15  31    6.2715   556.4    4.620      51.270
2014   11        8    15  36    6.2734   556.4    4.623      51.283
2014   11        8    15  42    6.2753   556.5    4.625      51.297
2014   11        8    15  47    6.2771   556.5    4.627      51.310
2014   11        8    15  52    6.2790   556.5    4.629      51.325
2014   11        8    15  57    6.2809   556.5    4.632      51.339
2014   11        8    16   2    6.2828   556.5    4.634      51.354
2014   11        8    16   7    6.2846   556.5    4.636      51.369
2014   11        8    16  13    6.2865   556.6    4.639      51.384
2014   11        8    16  18    6.2883   556.6    4.641      51.399
2014   11        8    16  23    6.2902   556.6    4.643      51.414
2014   11        8    16  28    6.2921   556.6    4.645      51.430
2014   11        8    16  33    6.2939   556.6    4.647      51.446
2014   11        8    16  38    6.2958   556.6    4.650      51.461
2014   11        8    16  44    6.2976   556.6    4.652      51.477
2014   11        8    16  49    6.2994   556.6    4.654      51.492
2014   11        8    16  54    6.3012   556.7    4.656      51.508
2014   11        8    16  59    6.3031   556.7    4.658      51.523
2014   11        8    17   4    6.3049   556.7    4.660      51.538
2014   11        8    17   9    6.3067   556.7    4.661      51.553
2014   11        8    17  15    6.3085   556.7    4.663      51.567
2014   11        8    17  20    6.3103   556.7    4.665      51.582
2014   11        8    17  25    6.3121   556.7    4.666      51.596
2014   11        8    17  30    6.3139   556.7    4.668      51.609
2014   11        8    17  35    6.3157   556.7    4.669      51.623
2014   11        8    17  40    6.3175   556.8    4.671      51.636
2014   11        8    17  45    6.3193   556.8    4.672      51.648
2014   11        8    17  51    6.3210   556.8    4.673      51.660
2014   11        8    17  56    6.3228   556.8    4.675      51.672
2014   11        8    18   1    6.3246   556.8    4.676      51.684
2014   11        8    18   6    6.3263   556.8    4.677      51.695
2014   11        8    18  11    6.3281   556.8    4.678      51.706
2014   11        8    18  16    6.3298   556.8    4.679      51.717
2014   11        8    18  22    6.3316   556.9    4.680      51.727
2014   11        8    18  27    6.3333   556.9    4.681      51.738
2014   11        8    18  32    6.3351   556.9    4.682      51.748
2014   11        8    18  37    6.3369   556.9    4.683      51.758
2014   11        8    18  42    6.3386   556.9    4.684      51.767
2014   11        8    18  47    6.3404   556.9    4.684      51.777
2014   11        8    18  53    6.3421   556.9    4.685      51.786
2014   11        8    18  58    6.3439   557.0    4.686      51.796
2014   11        8    19   3    6.3457   557.0    4.687      51.806
2014   11        8    19   8    6.3475   557.0    4.688      51.815
2014   11        8    19  13    6.3492   557.0    4.688      51.824
2014   11        8    19  18    6.3510   557.0    4.689      51.834
2014   11        8    19  24    6.3528   557.0    4.690      51.843
2014   11        8    19  29    6.3546   557.1    4.690      51.853
2014   11        8    19  34    6.3564   557.1    4.691      51.863
2014   11        8    19  39    6.3582   557.1    4.692      51.872
2014   11        8    19  44    6.3601   557.1    4.693      51.882
2014   11        8    19  49    6.3619   557.1    4.693      51.892
2014   11        8    19  55    6.3637   557.2    4.694      51.902
2014   11        8    20   0    6.3655   557.2    4.695      51.912
2014   11        8    20   5    6.3674   557.2    4.695      51.922
2014   11        8    20  10    6.3692   557.2    4.696      51.932
2014   11        8    20  15    6.3711   557.3    4.697      51.942
2014   11        8    20  20    6.3729   557.3    4.698      51.952
2014   11        8    20  25    6.3748   557.3    4.698      51.963
2014   11        8    20  31    6.3766   557.3    4.699      51.973
2014   11        8    20  36    6.3785   557.4    4.700      51.983
2014   11        8    20  41    6.3804   557.4    4.701      51.994
2014   11        8    20  46    6.3823   557.4    4.701      52.005
2014   11        8    20  51    6.3841   557.4    4.702      52.016
2014   11        8    20  56    6.3860   557.5    4.703      52.027
2014   11        8    21   2    6.3879   557.5    4.704      52.038
2014   11        8    21   7    6.3898   557.5    4.705      52.049
2014   11        8    21  12    6.3918   557.5    4.706      52.060
2014   11        8    21  17    6.3937   557.5    4.707      52.072
2014   11        8    21  22    6.3956   557.6    4.708      52.083
2014   11        8    21  27    6.3975   557.6    4.709      52.095
2014   11        8    21  33    6.3994   557.6    4.710      52.107
2014   11        8    21  38    6.4014   557.6    4.711      52.119
2014   11        8    21  43    6.4033   557.7    4.712      52.132
2014   11        8    21  48    6.4053   557.7    4.713      52.144
2014   11        8    21  53    6.4073   557.7    4.714      52.157
2014   11        8    21  58    6.4093   557.7    4.715      52.170
2014   11        8    22   4    6.4113   557.8    4.717      52.183
2014   11        8    22   9    6.4133   557.8    4.718      52.197
2014   11        8    22  14    6.4153   557.8    4.719      52.210
2014   11        8    22  19    6.4173   557.8    4.721      52.224
2014   11        8    22  24    6.4193   557.9    4.722      52.239
2014   11        8    22  29    6.4214   557.9    4.724      52.254
2014   11        8    22  35    6.4234   557.9    4.726      52.269
2014   11        8    22  40    6.4255   557.9    4.727      52.284
2014   11        8    22  45    6.4276   558.0    4.729      52.300
2014   11        8    22  50    6.4297   558.0    4.731      52.316
2014   11        8    22  55    6.4318   558.0    4.733      52.332
2014   11        8    23   0    6.4339   558.0    4.735      52.349
2014   11        8    23   5    6.4360   558.1    4.737      52.366
2014   11        8    23  11    6.4381   558.1    4.739      52.384
2014   11        8    23  16    6.4402   558.1    4.741      52.402
2014   11        8    23  21    6.4424   558.2    4.743      52.420
2014   11        8    23  26    6.4445   558.2    4.745      52.440
2014   11        8    23  31    6.4466   558.2    4.747      52.459
2014   11        8    23  36    6.4488   558.2    4.750      52.480
2014   11        8    23  42    6.4509   558.3    4.752      52.501
2014   11        8    23  47    6.4530   558.3    4.754      52.523
2014   11        8    23  52    6.4551   558.3    4.757      52.546
2014   11        8    23  57    6.4572   558.4    4.759      52.569
2014   11        9     0   2    6.4593   558.4    4.761      52.593
2014   11        9     0   7    6.4614   558.4    4.763      52.618
2014   11        9     0  13    6.4634   558.5    4.765      52.643
2014   11        9     0  18    6.4655   558.5    4.767      52.668
2014   11        9     0  23    6.4675   558.5    4.769      52.693
2014   11        9     0  28    6.4695   558.6    4.771      52.718
2014   11        9     0  33    6.4715   558.6    4.772      52.742
2014   11        9     0  38    6.4734   558.6    4.774      52.767
2014   11        9     0  44    6.4754   558.7    4.775      52.791
2014   11        9     0  49    6.4774   558.7    4.777      52.814
2014   11        9     0  54    6.4794   558.7    4.778      52.837
2014   11        9     0  59    6.4813   558.8    4.779      52.859
2014   11        9     1   4    6.4833   558.8    4.780      52.880
