year    month   day   hour  minute  B_enl V_enl   n_enl       T_enl
[year] [month] [day] [hour][minute] [nT]  [km/s]  [cm-3]      [kK]
2015    1       28     0   1    5.5462   518.4    5.188      53.989
2015    1       28     0   6    5.5435   518.5    5.185      53.978
2015    1       28     0  12    5.5409   518.5    5.182      53.968
2015    1       28     0  17    5.5382   518.6    5.178      53.956
2015    1       28     0  23    5.5355   518.6    5.175      53.945
2015    1       28     0  28    5.5328   518.7    5.172      53.934
2015    1       28     0  33    5.5301   518.7    5.169      53.922
2015    1       28     0  39    5.5274   518.8    5.165      53.910
2015    1       28     0  44    5.5246   518.8    5.162      53.898
2015    1       28     0  50    5.5218   518.9    5.159      53.886
2015    1       28     0  55    5.5191   518.9    5.156      53.874
2015    1       28     1   0    5.5163   519.0    5.153      53.862
2015    1       28     1   6    5.5135   519.0    5.150      53.850
2015    1       28     1  11    5.5107   519.1    5.147      53.838
2015    1       28     1  16    5.5079   519.1    5.145      53.825
2015    1       28     1  22    5.5051   519.2    5.142      53.813
2015    1       28     1  27    5.5023   519.2    5.139      53.800
2015    1       28     1  33    5.4994   519.3    5.136      53.788
2015    1       28     1  38    5.4966   519.3    5.133      53.775
2015    1       28     1  43    5.4937   519.4    5.130      53.762
2015    1       28     1  49    5.4909   519.4    5.128      53.749
2015    1       28     1  54    5.4880   519.5    5.125      53.737
2015    1       28     2   0    5.4851   519.5    5.122      53.724
2015    1       28     2   5    5.4822   519.5    5.119      53.711
2015    1       28     2  10    5.4794   519.6    5.116      53.698
2015    1       28     2  16    5.4765   519.6    5.114      53.685
2015    1       28     2  21    5.4736   519.6    5.111      53.672
2015    1       28     2  27    5.4707   519.7    5.108      53.658
2015    1       28     2  32    5.4678   519.7    5.105      53.645
2015    1       28     2  37    5.4649   519.7    5.102      53.633
2015    1       28     2  43    5.4621   519.8    5.099      53.620
2015    1       28     2  48    5.4592   519.8    5.097      53.607
2015    1       28     2  54    5.4563   519.8    5.094      53.594
2015    1       28     2  59    5.4535   519.9    5.091      53.582
2015    1       28     3   4    5.4506   519.9    5.088      53.569
2015    1       28     3  10    5.4478   519.9    5.085      53.557
2015    1       28     3  15    5.4449   519.9    5.082      53.544
2015    1       28     3  20    5.4421   520.0    5.079      53.532
2015    1       28     3  26    5.4393   520.0    5.077      53.520
2015    1       28     3  31    5.4365   520.0    5.074      53.508
2015    1       28     3  37    5.4337   520.0    5.071      53.496
2015    1       28     3  42    5.4310   520.0    5.068      53.484
2015    1       28     3  47    5.4282   520.0    5.065      53.472
2015    1       28     3  53    5.4255   520.1    5.062      53.461
2015    1       28     3  58    5.4227   520.1    5.059      53.449
2015    1       28     4   4    5.4200   520.1    5.057      53.437
2015    1       28     4   9    5.4174   520.1    5.054      53.425
2015    1       28     4  14    5.4147   520.1    5.051      53.413
2015    1       28     4  20    5.4120   520.1    5.048      53.401
2015    1       28     4  25    5.4094   520.1    5.045      53.388
2015    1       28     4  31    5.4068   520.1    5.042      53.376
2015    1       28     4  36    5.4042   520.1    5.039      53.363
2015    1       28     4  41    5.4016   520.1    5.036      53.350
2015    1       28     4  47    5.3990   520.1    5.034      53.337
2015    1       28     4  52    5.3965   520.2    5.031      53.323
2015    1       28     4  57    5.3939   520.2    5.028      53.309
2015    1       28     5   3    5.3914   520.2    5.025      53.295
2015    1       28     5   8    5.3889   520.2    5.022      53.281
2015    1       28     5  14    5.3864   520.2    5.020      53.266
2015    1       28     5  19    5.3839   520.2    5.017      53.252
2015    1       28     5  24    5.3815   520.2    5.014      53.236
2015    1       28     5  30    5.3791   520.2    5.011      53.221
2015    1       28     5  35    5.3766   520.2    5.009      53.205
2015    1       28     5  41    5.3742   520.1    5.006      53.190
2015    1       28     5  46    5.3718   520.1    5.004      53.174
2015    1       28     5  51    5.3694   520.1    5.001      53.157
2015    1       28     5  57    5.3671   520.1    4.999      53.141
2015    1       28     6   2    5.3647   520.1    4.996      53.125
2015    1       28     6   8    5.3624   520.1    4.994      53.108
2015    1       28     6  13    5.3601   520.1    4.991      53.091
2015    1       28     6  18    5.3578   520.1    4.989      53.075
2015    1       28     6  24    5.3555   520.1    4.987      53.058
2015    1       28     6  29    5.3532   520.1    4.985      53.041
2015    1       28     6  35    5.3509   520.1    4.983      53.024
2015    1       28     6  40    5.3487   520.1    4.981      53.007
2015    1       28     6  45    5.3464   520.1    4.979      52.990
2015    1       28     6  51    5.3442   520.1    4.977      52.973
2015    1       28     6  56    5.3419   520.1    4.975      52.956
2015    1       28     7   1    5.3397   520.1    4.973      52.939
2015    1       28     7   7    5.3375   520.1    4.971      52.922
2015    1       28     7  12    5.3353   520.1    4.969      52.906
2015    1       28     7  18    5.3331   520.0    4.968      52.889
2015    1       28     7  23    5.3309   520.0    4.966      52.873
2015    1       28     7  28    5.3288   520.0    4.964      52.856
2015    1       28     7  34    5.3266   520.0    4.963      52.840
2015    1       28     7  39    5.3244   520.0    4.961      52.824
2015    1       28     7  45    5.3222   520.0    4.960      52.809
2015    1       28     7  50    5.3200   520.0    4.959      52.793
2015    1       28     7  55    5.3178   520.0    4.957      52.778
2015    1       28     8   1    5.3157   520.0    4.956      52.763
2015    1       28     8   6    5.3135   520.0    4.954      52.748
2015    1       28     8  12    5.3112   520.0    4.953      52.733
2015    1       28     8  17    5.3090   520.0    4.952      52.718
2015    1       28     8  22    5.3068   520.0    4.951      52.704
2015    1       28     8  28    5.3045   520.0    4.949      52.689
2015    1       28     8  33    5.3023   520.0    4.948      52.675
2015    1       28     8  39    5.3000   519.9    4.947      52.661
2015    1       28     8  44    5.2978   519.9    4.946      52.647
2015    1       28     8  49    5.2955   519.9    4.944      52.633
2015    1       28     8  55    5.2932   519.9    4.943      52.620
2015    1       28     9   0    5.2909   519.9    4.942      52.606
2015    1       28     9   5    5.2886   519.9    4.941      52.592
2015    1       28     9  11    5.2864   519.9    4.939      52.579
2015    1       28     9  16    5.2841   519.9    4.938      52.565
2015    1       28     9  22    5.2818   519.8    4.937      52.551
2015    1       28     9  27    5.2795   519.8    4.935      52.538
2015    1       28     9  32    5.2772   519.8    4.934      52.524
2015    1       28     9  38    5.2749   519.8    4.933      52.511
2015    1       28     9  43    5.2727   519.8    4.931      52.497
2015    1       28     9  49    5.2704   519.8    4.930      52.483
2015    1       28     9  54    5.2681   519.7    4.929      52.470
2015    1       28     9  59    5.2659   519.7    4.927      52.456
2015    1       28    10   5    5.2636   519.7    4.926      52.442
2015    1       28    10  10    5.2614   519.7    4.925      52.428
2015    1       28    10  16    5.2592   519.6    4.923      52.414
2015    1       28    10  21    5.2569   519.6    4.922      52.400
2015    1       28    10  26    5.2547   519.6    4.921      52.386
2015    1       28    10  32    5.2525   519.6    4.919      52.371
2015    1       28    10  37    5.2504   519.5    4.918      52.357
2015    1       28    10  42    5.2482   519.5    4.917      52.342
2015    1       28    10  48    5.2460   519.5    4.915      52.327
2015    1       28    10  53    5.2439   519.5    4.914      52.312
2015    1       28    10  59    5.2417   519.4    4.913      52.296
2015    1       28    11   4    5.2396   519.4    4.911      52.280
2015    1       28    11   9    5.2375   519.4    4.910      52.264
2015    1       28    11  15    5.2354   519.3    4.909      52.247
2015    1       28    11  20    5.2333   519.3    4.907      52.229
2015    1       28    11  26    5.2312   519.3    4.906      52.210
2015    1       28    11  31    5.2291   519.3    4.904      52.190
2015    1       28    11  36    5.2270   519.2    4.903      52.170
2015    1       28    11  42    5.2249   519.2    4.902      52.149
2015    1       28    11  47    5.2229   519.1    4.900      52.127
2015    1       28    11  53    5.2208   519.1    4.899      52.105
2015    1       28    11  58    5.2187   519.1    4.897      52.081
2015    1       28    12   3    5.2167   519.0    4.896      52.058
2015    1       28    12   9    5.2146   519.0    4.894      52.034
2015    1       28    12  14    5.2126   518.9    4.893      52.009
2015    1       28    12  20    5.2106   518.9    4.891      51.984
2015    1       28    12  25    5.2086   518.9    4.890      51.959
2015    1       28    12  30    5.2066   518.8    4.888      51.933
2015    1       28    12  36    5.2046   518.8    4.887      51.907
2015    1       28    12  41    5.2026   518.7    4.885      51.881
2015    1       28    12  46    5.2007   518.7    4.884      51.855
2015    1       28    12  52    5.1987   518.6    4.882      51.828
2015    1       28    12  57    5.1968   518.6    4.881      51.802
2015    1       28    13   3    5.1948   518.5    4.880      51.775
2015    1       28    13   8    5.1929   518.5    4.878      51.749
2015    1       28    13  13    5.1910   518.4    4.877      51.722
2015    1       28    13  19    5.1891   518.4    4.875      51.695
2015    1       28    13  24    5.1872   518.3    4.874      51.669
2015    1       28    13  30    5.1854   518.3    4.873      51.642
2015    1       28    13  35    5.1835   518.2    4.871      51.615
2015    1       28    13  40    5.1817   518.2    4.870      51.589
2015    1       28    13  46    5.1798   518.1    4.869      51.562
2015    1       28    13  51    5.1780   518.1    4.868      51.536
2015    1       28    13  57    5.1762   518.0    4.866      51.509
2015    1       28    14   2    5.1744   518.0    4.865      51.483
2015    1       28    14   7    5.1726   517.9    4.864      51.457
2015    1       28    14  13    5.1708   517.9    4.863      51.431
2015    1       28    14  18    5.1690   517.8    4.862      51.404
2015    1       28    14  24    5.1673   517.8    4.861      51.379
2015    1       28    14  29    5.1655   517.7    4.860      51.353
2015    1       28    14  34    5.1637   517.7    4.859      51.327
2015    1       28    14  40    5.1620   517.6    4.858      51.301
2015    1       28    14  45    5.1602   517.5    4.857      51.275
2015    1       28    14  50    5.1585   517.5    4.856      51.250
2015    1       28    14  56    5.1568   517.4    4.855      51.224
2015    1       28    15   1    5.1550   517.4    4.854      51.199
2015    1       28    15   7    5.1533   517.3    4.853      51.173
2015    1       28    15  12    5.1516   517.3    4.852      51.148
2015    1       28    15  17    5.1499   517.2    4.851      51.123
2015    1       28    15  23    5.1482   517.2    4.850      51.098
2015    1       28    15  28    5.1464   517.1    4.849      51.073
2015    1       28    15  34    5.1447   517.0    4.849      51.048
2015    1       28    15  39    5.1430   517.0    4.848      51.023
2015    1       28    15  44    5.1413   516.9    4.847      50.998
2015    1       28    15  50    5.1396   516.9    4.846      50.973
2015    1       28    15  55    5.1379   516.8    4.845      50.949
2015    1       28    16   1    5.1361   516.7    4.844      50.924
2015    1       28    16   6    5.1344   516.7    4.843      50.900
2015    1       28    16  11    5.1327   516.6    4.843      50.875
2015    1       28    16  17    5.1310   516.6    4.842      50.851
2015    1       28    16  22    5.1293   516.5    4.841      50.827
2015    1       28    16  27    5.1276   516.4    4.840      50.803
2015    1       28    16  33    5.1258   516.4    4.840      50.779
2015    1       28    16  38    5.1241   516.3    4.839      50.755
2015    1       28    16  44    5.1224   516.3    4.838      50.731
2015    1       28    16  49    5.1207   516.2    4.837      50.708
2015    1       28    16  54    5.1190   516.1    4.837      50.685
2015    1       28    17   0    5.1173   516.1    4.836      50.662
2015    1       28    17   5    5.1155   516.0    4.835      50.639
2015    1       28    17  11    5.1138   515.9    4.835      50.616
2015    1       28    17  16    5.1121   515.9    4.834      50.593
2015    1       28    17  21    5.1104   515.8    4.834      50.571
2015    1       28    17  27    5.1087   515.7    4.833      50.548
2015    1       28    17  32    5.1070   515.7    4.833      50.526
2015    1       28    17  38    5.1053   515.6    4.832      50.504
2015    1       28    17  43    5.1036   515.5    4.832      50.482
2015    1       28    17  48    5.1019   515.5    4.831      50.461
2015    1       28    17  54    5.1002   515.4    4.831      50.439
2015    1       28    17  59    5.0985   515.3    4.831      50.417
2015    1       28    18   5    5.0968   515.2    4.830      50.396
2015    1       28    18  10    5.0951   515.2    4.830      50.375
2015    1       28    18  15    5.0934   515.1    4.830      50.354
2015    1       28    18  21    5.0917   515.0    4.830      50.332
2015    1       28    18  26    5.0900   515.0    4.829      50.311
2015    1       28    18  31    5.0883   514.9    4.829      50.289
2015    1       28    18  37    5.0866   514.8    4.829      50.267
2015    1       28    18  42    5.0849   514.7    4.829      50.244
2015    1       28    18  48    5.0832   514.7    4.829      50.220
2015    1       28    18  53    5.0815   514.6    4.829      50.197
2015    1       28    18  58    5.0798   514.5    4.829      50.172
2015    1       28    19   4    5.0781   514.5    4.829      50.148
2015    1       28    19   9    5.0764   514.4    4.829      50.123
2015    1       28    19  15    5.0747   514.3    4.829      50.098
2015    1       28    19  20    5.0730   514.2    4.829      50.072
2015    1       28    19  25    5.0713   514.2    4.829      50.047
2015    1       28    19  31    5.0696   514.1    4.829      50.020
2015    1       28    19  36    5.0679   514.0    4.829      49.994
2015    1       28    19  42    5.0661   513.9    4.829      49.967
2015    1       28    19  47    5.0644   513.8    4.829      49.940
2015    1       28    19  52    5.0627   513.8    4.829      49.912
2015    1       28    19  58    5.0610   513.7    4.829      49.884
2015    1       28    20   3    5.0593   513.6    4.829      49.855
2015    1       28    20   9    5.0575   513.5    4.829      49.826
2015    1       28    20  14    5.0558   513.5    4.829      49.796
2015    1       28    20  19    5.0541   513.4    4.829      49.766
2015    1       28    20  25    5.0524   513.3    4.829      49.735
2015    1       28    20  30    5.0507   513.2    4.828      49.703
2015    1       28    20  35    5.0489   513.1    4.828      49.672
2015    1       28    20  41    5.0472   513.1    4.828      49.639
2015    1       28    20  46    5.0455   513.0    4.828      49.607
2015    1       28    20  52    5.0438   512.9    4.828      49.574
2015    1       28    20  57    5.0421   512.8    4.827      49.540
2015    1       28    21   2    5.0404   512.7    4.827      49.507
2015    1       28    21   8    5.0387   512.7    4.827      49.473
2015    1       28    21  13    5.0370   512.6    4.827      49.439
2015    1       28    21  19    5.0353   512.5    4.826      49.404
2015    1       28    21  24    5.0337   512.4    4.826      49.370
2015    1       28    21  29    5.0320   512.3    4.826      49.335
2015    1       28    21  35    5.0304   512.2    4.825      49.299
2015    1       28    21  40    5.0287   512.1    4.825      49.264
2015    1       28    21  46    5.0271   512.1    4.824      49.229
2015    1       28    21  51    5.0255   512.0    4.824      49.193
2015    1       28    21  56    5.0239   511.9    4.824      49.157
2015    1       28    22   2    5.0223   511.8    4.823      49.121
2015    1       28    22   7    5.0207   511.7    4.823      49.085
2015    1       28    22  12    5.0192   511.6    4.822      49.049
2015    1       28    22  18    5.0177   511.5    4.822      49.013
2015    1       28    22  23    5.0161   511.4    4.821      48.977
2015    1       28    22  29    5.0146   511.4    4.821      48.941
2015    1       28    22  34    5.0131   511.3    4.821      48.904
2015    1       28    22  39    5.0117   511.2    4.820      48.868
2015    1       28    22  45    5.0102   511.1    4.820      48.831
2015    1       28    22  50    5.0088   511.0    4.820      48.795
2015    1       28    22  56    5.0073   510.9    4.819      48.759
2015    1       28    23   1    5.0059   510.8    4.819      48.722
2015    1       28    23   6    5.0045   510.7    4.819      48.686
2015    1       28    23  12    5.0031   510.6    4.818      48.650
2015    1       28    23  17    5.0017   510.5    4.818      48.614
2015    1       28    23  23    5.0004   510.4    4.818      48.577
2015    1       28    23  28    4.9990   510.3    4.817      48.541
2015    1       28    23  33    4.9977   510.2    4.817      48.505
2015    1       28    23  39    4.9963   510.2    4.817      48.469
2015    1       28    23  44    4.9949   510.1    4.816      48.433
2015    1       28    23  50    4.9936   510.0    4.816      48.397
2015    1       28    23  55    4.9922   509.9    4.816      48.360
2015    1       29     0   0    4.9908   509.8    4.815      48.324
2015    1       29     0   6    4.9892   509.7    4.815      48.287
2015    1       29     0  11    4.9875   509.6    4.814      48.250
2015    1       29     0  16    4.9858   509.5    4.813      48.213
2015    1       29     0  22    4.9842   509.4    4.813      48.177
2015    1       29     0  27    4.9825   509.3    4.812      48.140
2015    1       29     0  33    4.9808   509.2    4.811      48.103
2015    1       29     0  38    4.9791   509.1    4.810      48.066
2015    1       29     0  43    4.9775   509.0    4.810      48.029
2015    1       29     0  49    4.9758   508.9    4.809      47.992
2015    1       29     0  54    4.9741   508.8    4.808      47.955
2015    1       29     1   0    4.9725   508.7    4.807      47.918
2015    1       29     1   5    4.9708   508.6    4.807      47.881
2015    1       29     1  10    4.9691   508.5    4.806      47.844
2015    1       29     1  16    4.9674   508.4    4.805      47.807
2015    1       29     1  21    4.9657   508.3    4.804      47.771
2015    1       29     1  27    4.9640   508.2    4.804      47.734
2015    1       29     1  32    4.9624   508.1    4.803      47.697
2015    1       29     1  37    4.9607   508.0    4.802      47.660
2015    1       29     1  43    4.9590   507.9    4.801      47.624
2015    1       29     1  48    4.9573   507.8    4.801      47.587
2015    1       29     1  54    4.9557   507.6    4.800      47.551
2015    1       29     1  59    4.9540   507.5    4.799      47.515
2015    1       29     2   4    4.9523   507.4    4.799      47.478
2015    1       29     2  10    4.9507   507.3    4.798      47.442
