year    month   day   hour  minute  B_enl V_enl   n_enl       T_enl
[year] [month] [day] [hour][minute] [nT]  [km/s]  [cm-3]      [kK]
2015    1        6     0   0    5.9939   544.4    4.224      38.766
2015    1        6     0   5    5.9974   544.2    4.230      38.732
2015    1        6     0  10    6.0010   544.0    4.235      38.698
2015    1        6     0  15    6.0046   543.8    4.241      38.664
2015    1        6     0  20    6.0081   543.6    4.247      38.631
2015    1        6     0  25    6.0117   543.4    4.252      38.597
2015    1        6     0  30    6.0154   543.2    4.258      38.563
2015    1        6     0  35    6.0190   543.0    4.263      38.530
2015    1        6     0  40    6.0227   542.8    4.269      38.496
2015    1        6     0  45    6.0264   542.6    4.275      38.463
2015    1        6     0  50    6.0301   542.4    4.280      38.429
2015    1        6     0  55    6.0338   542.2    4.286      38.396
2015    1        6     0  59    6.0375   542.0    4.291      38.364
2015    1        6     1   4    6.0413   541.8    4.297      38.331
2015    1        6     1   9    6.0450   541.6    4.302      38.298
2015    1        6     1  14    6.0488   541.4    4.308      38.266
2015    1        6     1  19    6.0526   541.2    4.313      38.234
2015    1        6     1  24    6.0565   541.0    4.319      38.202
2015    1        6     1  29    6.0603   540.8    4.324      38.171
2015    1        6     1  34    6.0641   540.6    4.330      38.140
2015    1        6     1  39    6.0680   540.4    4.335      38.110
2015    1        6     1  44    6.0719   540.2    4.341      38.080
2015    1        6     1  49    6.0758   540.0    4.347      38.050
2015    1        6     1  54    6.0797   539.8    4.352      38.021
2015    1        6     1  58    6.0836   539.6    4.358      37.993
2015    1        6     2   3    6.0876   539.5    4.364      37.965
2015    1        6     2   8    6.0915   539.3    4.369      37.938
2015    1        6     2  13    6.0955   539.1    4.375      37.911
2015    1        6     2  18    6.0995   538.9    4.381      37.886
2015    1        6     2  23    6.1035   538.7    4.387      37.861
2015    1        6     2  28    6.1075   538.5    4.393      37.837
2015    1        6     2  33    6.1116   538.3    4.399      37.813
2015    1        6     2  38    6.1156   538.2    4.405      37.791
2015    1        6     2  43    6.1197   538.0    4.411      37.769
2015    1        6     2  48    6.1238   537.8    4.417      37.748
2015    1        6     2  52    6.1279   537.6    4.423      37.728
2015    1        6     2  57    6.1320   537.4    4.430      37.710
2015    1        6     3   2    6.1361   537.3    4.436      37.692
2015    1        6     3   7    6.1403   537.1    4.443      37.675
2015    1        6     3  12    6.1445   536.9    4.450      37.659
2015    1        6     3  17    6.1487   536.8    4.456      37.644
2015    1        6     3  22    6.1529   536.6    4.463      37.630
2015    1        6     3  27    6.1571   536.4    4.470      37.617
2015    1        6     3  32    6.1614   536.3    4.477      37.606
2015    1        6     3  37    6.1656   536.1    4.485      37.595
2015    1        6     3  42    6.1699   535.9    4.492      37.585
2015    1        6     3  46    6.1742   535.8    4.499      37.576
2015    1        6     3  51    6.1786   535.6    4.507      37.568
2015    1        6     3  56    6.1829   535.5    4.514      37.561
2015    1        6     4   1    6.1873   535.3    4.522      37.555
2015    1        6     4   6    6.1917   535.2    4.530      37.550
2015    1        6     4  11    6.1961   535.0    4.538      37.545
2015    1        6     4  16    6.2005   534.9    4.546      37.540
2015    1        6     4  21    6.2049   534.7    4.554      37.536
2015    1        6     4  26    6.2093   534.6    4.562      37.532
2015    1        6     4  31    6.2138   534.4    4.570      37.529
2015    1        6     4  36    6.2182   534.3    4.578      37.525
2015    1        6     4  41    6.2227   534.1    4.586      37.521
2015    1        6     4  46    6.2271   534.0    4.594      37.517
2015    1        6     4  50    6.2317   533.8    4.602      37.513
2015    1        6     4  55    6.2362   533.7    4.610      37.509
2015    1        6     5   0    6.2407   533.6    4.619      37.506
2015    1        6     5   5    6.2452   533.4    4.627      37.502
2015    1        6     5  10    6.2498   533.3    4.635      37.499
2015    1        6     5  15    6.2543   533.1    4.643      37.496
2015    1        6     5  20    6.2589   533.0    4.651      37.492
2015    1        6     5  25    6.2635   532.9    4.659      37.489
2015    1        6     5  30    6.2681   532.7    4.667      37.484
2015    1        6     5  35    6.2728   532.6    4.675      37.480
2015    1        6     5  40    6.2774   532.5    4.683      37.475
2015    1        6     5  45    6.2820   532.4    4.691      37.469
2015    1        6     5  50    6.2867   532.3    4.698      37.463
2015    1        6     5  55    6.2913   532.1    4.706      37.456
2015    1        6     5  59    6.2960   532.0    4.713      37.449
2015    1        6     6   4    6.3006   531.9    4.720      37.441
2015    1        6     6   9    6.3053   531.8    4.727      37.432
2015    1        6     6  14    6.3099   531.7    4.734      37.423
2015    1        6     6  19    6.3145   531.6    4.741      37.413
2015    1        6     6  24    6.3192   531.4    4.747      37.404
2015    1        6     6  29    6.3238   531.3    4.754      37.393
2015    1        6     6  34    6.3284   531.2    4.760      37.382
2015    1        6     6  39    6.3331   531.1    4.766      37.371
2015    1        6     6  44    6.3377   531.0    4.772      37.359
2015    1        6     6  49    6.3424   530.9    4.778      37.347
2015    1        6     6  54    6.3470   530.8    4.784      37.334
2015    1        6     6  59    6.3516   530.7    4.789      37.322
2015    1        6     7   3    6.3563   530.6    4.795      37.309
2015    1        6     7   8    6.3609   530.5    4.800      37.295
2015    1        6     7  13    6.3656   530.4    4.806      37.282
2015    1        6     7  18    6.3703   530.3    4.811      37.268
2015    1        6     7  23    6.3749   530.2    4.816      37.254
2015    1        6     7  28    6.3796   530.1    4.821      37.240
2015    1        6     7  33    6.3843   530.0    4.826      37.226
2015    1        6     7  38    6.3890   529.9    4.831      37.212
2015    1        6     7  43    6.3937   529.8    4.836      37.198
2015    1        6     7  48    6.3983   529.7    4.841      37.183
2015    1        6     7  53    6.4031   529.6    4.845      37.169
2015    1        6     7  58    6.4078   529.5    4.850      37.155
2015    1        6     8   2    6.4125   529.4    4.855      37.141
2015    1        6     8   7    6.4172   529.3    4.859      37.126
2015    1        6     8  12    6.4219   529.2    4.864      37.112
2015    1        6     8  17    6.4267   529.1    4.868      37.099
2015    1        6     8  22    6.4314   529.0    4.873      37.085
2015    1        6     8  27    6.4362   528.9    4.877      37.072
2015    1        6     8  32    6.4409   528.8    4.881      37.059
2015    1        6     8  37    6.4457   528.7    4.886      37.046
2015    1        6     8  42    6.4505   528.6    4.890      37.033
2015    1        6     8  47    6.4552   528.5    4.894      37.021
2015    1        6     8  52    6.4600   528.4    4.898      37.010
2015    1        6     8  57    6.4648   528.4    4.903      36.998
2015    1        6     9   1    6.4696   528.3    4.907      36.988
2015    1        6     9   6    6.4744   528.2    4.911      36.977
2015    1        6     9  11    6.4792   528.1    4.915      36.967
2015    1        6     9  16    6.4840   528.0    4.919      36.957
2015    1        6     9  21    6.4888   527.9    4.923      36.948
2015    1        6     9  26    6.4936   527.8    4.927      36.939
2015    1        6     9  31    6.4984   527.7    4.932      36.931
2015    1        6     9  36    6.5032   527.7    4.936      36.922
2015    1        6     9  41    6.5080   527.6    4.940      36.915
2015    1        6     9  46    6.5128   527.5    4.944      36.908
2015    1        6     9  51    6.5176   527.4    4.948      36.901
2015    1        6     9  55    6.5225   527.3    4.952      36.895
2015    1        6    10   0    6.5273   527.2    4.957      36.889
2015    1        6    10   5    6.5321   527.2    4.961      36.884
2015    1        6    10  10    6.5370   527.1    4.965      36.880
2015    1        6    10  15    6.5418   527.0    4.969      36.876
2015    1        6    10  20    6.5466   526.9    4.974      36.873
2015    1        6    10  25    6.5515   526.8    4.978      36.870
2015    1        6    10  30    6.5563   526.8    4.982      36.868
2015    1        6    10  35    6.5612   526.7    4.987      36.867
2015    1        6    10  40    6.5660   526.6    4.991      36.867
2015    1        6    10  45    6.5709   526.5    4.996      36.867
2015    1        6    10  49    6.5758   526.5    5.000      36.868
2015    1        6    10  54    6.5806   526.4    5.005      36.870
2015    1        6    10  59    6.5855   526.3    5.010      36.873
2015    1        6    11   4    6.5903   526.3    5.014      36.876
2015    1        6    11   9    6.5952   526.2    5.019      36.880
2015    1        6    11  14    6.6001   526.1    5.024      36.885
2015    1        6    11  19    6.6050   526.1    5.029      36.891
2015    1        6    11  24    6.6099   526.0    5.034      36.897
2015    1        6    11  29    6.6148   525.9    5.039      36.904
2015    1        6    11  34    6.6197   525.9    5.044      36.913
2015    1        6    11  39    6.6246   525.8    5.050      36.921
2015    1        6    11  44    6.6295   525.7    5.055      36.931
2015    1        6    11  49    6.6344   525.7    5.060      36.942
2015    1        6    11  53    6.6393   525.6    5.066      36.953
2015    1        6    11  58    6.6443   525.5    5.072      36.966
2015    1        6    12   3    6.6492   525.5    5.078      36.979
2015    1        6    12   8    6.6542   525.4    5.084      36.993
2015    1        6    12  13    6.6592   525.3    5.090      37.009
2015    1        6    12  18    6.6642   525.3    5.096      37.025
2015    1        6    12  23    6.6692   525.2    5.102      37.042
2015    1        6    12  28    6.6742   525.2    5.109      37.059
2015    1        6    12  33    6.6793   525.1    5.116      37.077
2015    1        6    12  38    6.6844   525.1    5.123      37.096
2015    1        6    12  43    6.6894   525.0    5.130      37.115
2015    1        6    12  48    6.6945   525.0    5.137      37.135
2015    1        6    12  53    6.6997   524.9    5.144      37.154
2015    1        6    12  58    6.7049   524.9    5.151      37.174
2015    1        6    13   2    6.7100   524.8    5.158      37.194
2015    1        6    13   7    6.7153   524.8    5.166      37.215
2015    1        6    13  12    6.7205   524.7    5.173      37.237
2015    1        6    13  17    6.7257   524.7    5.180      37.259
2015    1        6    13  22    6.7310   524.7    5.188      37.282
2015    1        6    13  27    6.7362   524.6    5.195      37.306
2015    1        6    13  32    6.7415   524.6    5.203      37.330
2015    1        6    13  37    6.7467   524.6    5.210      37.355
2015    1        6    13  42    6.7519   524.6    5.217      37.380
2015    1        6    13  47    6.7571   524.5    5.223      37.405
2015    1        6    13  52    6.7623   524.5    5.230      37.428
2015    1        6    13  57    6.7674   524.5    5.236      37.452
2015    1        6    14   1    6.7726   524.5    5.242      37.474
2015    1        6    14   6    6.7777   524.5    5.247      37.495
2015    1        6    14  11    6.7828   524.4    5.253      37.515
2015    1        6    14  16    6.7878   524.4    5.258      37.534
2015    1        6    14  21    6.7929   524.4    5.263      37.552
2015    1        6    14  26    6.7980   524.4    5.268      37.570
2015    1        6    14  31    6.8030   524.4    5.272      37.586
2015    1        6    14  36    6.8080   524.4    5.277      37.601
2015    1        6    14  41    6.8130   524.4    5.281      37.616
2015    1        6    14  46    6.8180   524.3    5.285      37.630
2015    1        6    14  51    6.8230   524.3    5.289      37.643
2015    1        6    14  56    6.8279   524.3    5.293      37.655
2015    1        6    15   1    6.8329   524.3    5.296      37.667
2015    1        6    15   5    6.8379   524.3    5.299      37.678
2015    1        6    15  10    6.8428   524.3    5.303      37.688
2015    1        6    15  15    6.8478   524.2    5.306      37.698
2015    1        6    15  20    6.8527   524.2    5.309      37.708
2015    1        6    15  25    6.8576   524.2    5.312      37.717
2015    1        6    15  30    6.8626   524.2    5.315      37.726
2015    1        6    15  35    6.8675   524.2    5.317      37.735
2015    1        6    15  40    6.8724   524.2    5.320      37.744
2015    1        6    15  45    6.8773   524.1    5.322      37.752
2015    1        6    15  50    6.8823   524.1    5.325      37.760
2015    1        6    15  55    6.8872   524.1    5.327      37.769
2015    1        6    16   0    6.8921   524.1    5.329      37.776
2015    1        6    16   4    6.8970   524.1    5.332      37.784
2015    1        6    16   9    6.9019   524.1    5.334      37.792
2015    1        6    16  14    6.9068   524.0    5.336      37.800
2015    1        6    16  19    6.9117   524.0    5.338      37.807
2015    1        6    16  24    6.9166   524.0    5.340      37.815
2015    1        6    16  29    6.9215   524.0    5.342      37.822
2015    1        6    16  34    6.9263   524.0    5.344      37.830
2015    1        6    16  39    6.9312   524.0    5.346      37.837
2015    1        6    16  44    6.9361   524.0    5.347      37.844
2015    1        6    16  49    6.9409   523.9    5.349      37.851
2015    1        6    16  54    6.9458   523.9    5.351      37.858
2015    1        6    16  58    6.9507   523.9    5.352      37.864
2015    1        6    17   3    6.9555   523.9    5.354      37.871
2015    1        6    17   8    6.9604   523.9    5.356      37.877
2015    1        6    17  13    6.9652   523.9    5.357      37.884
2015    1        6    17  18    6.9701   523.9    5.359      37.890
2015    1        6    17  23    6.9749   523.9    5.360      37.896
2015    1        6    17  28    6.9798   523.9    5.362      37.903
2015    1        6    17  33    6.9846   523.8    5.363      37.909
2015    1        6    17  38    6.9894   523.8    5.365      37.916
2015    1        6    17  43    6.9943   523.8    5.366      37.923
2015    1        6    17  48    6.9991   523.8    5.368      37.930
2015    1        6    17  52    7.0040   523.8    5.369      37.937
2015    1        6    17  57    7.0088   523.8    5.371      37.944
2015    1        6    18   2    7.0137   523.8    5.372      37.952
2015    1        6    18   7    7.0185   523.8    5.374      37.960
2015    1        6    18  12    7.0234   523.8    5.375      37.968
2015    1        6    18  17    7.0282   523.8    5.377      37.977
2015    1        6    18  22    7.0331   523.8    5.378      37.986
2015    1        6    18  27    7.0380   523.8    5.380      37.996
2015    1        6    18  32    7.0428   523.8    5.382      38.006
2015    1        6    18  37    7.0477   523.8    5.384      38.017
2015    1        6    18  42    7.0526   523.8    5.385      38.028
2015    1        6    18  47    7.0575   523.8    5.387      38.040
2015    1        6    18  52    7.0624   523.8    5.389      38.053
2015    1        6    18  56    7.0673   523.8    5.391      38.066
2015    1        6    19   1    7.0722   523.8    5.394      38.080
2015    1        6    19   6    7.0771   523.8    5.396      38.095
2015    1        6    19  11    7.0821   523.8    5.398      38.111
2015    1        6    19  16    7.0870   523.8    5.401      38.127
2015    1        6    19  21    7.0919   523.8    5.403      38.145
2015    1        6    19  26    7.0969   523.8    5.406      38.164
2015    1        6    19  31    7.1018   523.8    5.409      38.183
2015    1        6    19  36    7.1068   523.8    5.412      38.204
2015    1        6    19  41    7.1117   523.8    5.415      38.226
2015    1        6    19  46    7.1167   523.8    5.419      38.248
2015    1        6    19  51    7.1217   523.8    5.423      38.272
2015    1        6    19  56    7.1267   523.8    5.426      38.297
2015    1        6    20   0    7.1317   523.8    5.430      38.324
2015    1        6    20   5    7.1368   523.8    5.435      38.352
2015    1        6    20  10    7.1418   523.8    5.439      38.380
2015    1        6    20  15    7.1469   523.9    5.444      38.410
2015    1        6    20  20    7.1520   523.9    5.449      38.442
2015    1        6    20  25    7.1572   523.9    5.454      38.475
2015    1        6    20  30    7.1623   523.9    5.460      38.510
2015    1        6    20  35    7.1675   523.9    5.466      38.547
2015    1        6    20  40    7.1726   524.0    5.471      38.584
2015    1        6    20  45    7.1778   524.0    5.477      38.624
2015    1        6    20  50    7.1829   524.0    5.483      38.666
2015    1        6    20  55    7.1880   524.1    5.489      38.708
2015    1        6    21   0    7.1931   524.1    5.494      38.752
2015    1        6    21   4    7.1982   524.2    5.500      38.796
2015    1        6    21   9    7.2032   524.2    5.505      38.840
2015    1        6    21  14    7.2082   524.3    5.510      38.885
2015    1        6    21  19    7.2131   524.4    5.515      38.931
2015    1        6    21  24    7.2180   524.4    5.520      38.977
2015    1        6    21  29    7.2229   524.5    5.524      39.023
2015    1        6    21  34    7.2276   524.5    5.529      39.069
2015    1        6    21  39    7.2324   524.6    5.533      39.115
2015    1        6    21  44    7.2371   524.7    5.536      39.160
2015    1        6    21  49    7.2418   524.7    5.540      39.206
2015    1        6    21  54    7.2464   524.8    5.543      39.250
2015    1        6    21  59    7.2510   524.8    5.546      39.294
2015    1        6    22   4    7.2555   524.9    5.548      39.337
2015    1        6    22   8    7.2601   525.0    5.551      39.379
2015    1        6    22  13    7.2646   525.0    5.553      39.420
2015    1        6    22  18    7.2691   525.1    5.556      39.460
2015    1        6    22  23    7.2736   525.1    5.558      39.500
2015    1        6    22  28    7.2781   525.2    5.559      39.538
2015    1        6    22  33    7.2826   525.2    5.561      39.577
2015    1        6    22  38    7.2871   525.3    5.563      39.614
2015    1        6    22  43    7.2916   525.4    5.564      39.651
2015    1        6    22  48    7.2960   525.4    5.566      39.686
2015    1        6    22  53    7.3005   525.5    5.567      39.722
2015    1        6    22  58    7.3050   525.5    5.568      39.757
2015    1        6    23   3    7.3095   525.6    5.569      39.791
2015    1        6    23   7    7.3139   525.6    5.570      39.824
2015    1        6    23  12    7.3184   525.7    5.571      39.858
2015    1        6    23  17    7.3229   525.7    5.572      39.890
2015    1        6    23  22    7.3274   525.8    5.572      39.922
2015    1        6    23  27    7.3319   525.9    5.573      39.954
2015    1        6    23  32    7.3364   525.9    5.574      39.985
2015    1        6    23  37    7.3409   526.0    5.574      40.016
2015    1        6    23  42    7.3454   526.0    5.575      40.046
2015    1        6    23  47    7.3499   526.1    5.575      40.076
2015    1        6    23  52    7.3544   526.1    5.575      40.105
